10/31/2024 07:55:26Time	T_hot_in(C)	T_cold_in(C)	T_cold_out(C)	T_hot_out(C)	mdot_cold(kg/s)	ASFASIFUAS(kg/s)	Diferencial_cold(bar)	Diferencial_hot(bar)	mdot_hot(kg/s)	ABS_cold(bar)	ABS_hot(bar)	q_cold(kW)	q_hot(kW)	ASFASYFY	Tau_cold_haste	Re_hot	Re_cold	U_global	PSIG_cold(bar)	R_fouling	PSIG_hot(bar)	PSID_hot(bar)	m_dot_hot	PSID_cold(bar)	m_dot_cold
1.75416  	0.00000  	0.00000  	0.00000  	0.00000  	-1.18512  	-0.20833  	-0.86278  	-2.50000  	-3.02442  	-1.25000  	-0.08628  	-0.00000  	-0.00000  	-737.84722  	-254.63905  	-9234.48090  	-3618.55272  	0.00000  	0.00000  	0.00000  	0.00000  	0.00000  	0.00000  	0.00000  
2.75633  	33.30634  	5.12445  	5.40033  	28.68122  	-1.18512  	0.04929  	0.48858  	0.53511  	-3.02442  	0.01547  	-0.08590  	-58.65061  	-1.36764  	157.93269  	144.19839  	-20593.41871  	-4213.19365  	0.00486  	0.00002  	0.00405  	0.00495  	0.00623  	0.00000  	0.00000  
3.75735  	33.30572  	5.12446  	5.40019  	28.68255  	-1.18512  	0.05048  	0.49093  	0.53096  	-3.02442  	0.01729  	-0.08576  	-58.62597  	-1.36688  	156.70749  	144.89136  	-20593.57364  	-4213.18543  	0.00485  	0.00002  	0.00406  	0.00497  	0.00624  	0.00000  	0.00000  
4.75832  	33.30643  	5.12456  	5.40161  	28.68584  	-1.18512  	0.05108  	0.49075  	0.53168  	-3.02442  	0.01634  	-0.08577  	-58.59316  	-1.37339  	156.91896  	144.83880  	-20594.45405  	-4213.27672  	0.00485  	0.00002  	0.00405  	0.00498  	0.00624  	0.00000  	0.00000  
5.75830  	33.30689  	5.12452  	5.40210  	28.68871  	-1.18512  	0.04906  	0.48989  	0.53412  	-3.02442  	0.01563  	-0.08571  	-58.56271  	-1.37602  	157.63915  	144.58480  	-20595.18579  	-4213.30369  	0.00485  	0.00003  	0.00405  	0.00494  	0.00623  	0.00000  	0.00000  
6.75840  	33.30706  	5.12450  	5.40273  	28.69025  	-1.18512  	0.05089  	0.49211  	0.53103  	-3.02442  	0.01034  	-0.08579  	-58.54525  	-1.37925  	156.72748  	145.24106  	-20595.56015  	-4213.34036  	0.00485  	0.00002  	0.00403  	0.00498  	0.00624  	0.00000  	0.00000  
7.75831  	33.30726  	5.12448  	5.40182  	28.69308  	-1.18512  	0.05140  	0.49060  	0.53107  	-3.02442  	0.01737  	-0.08584  	-58.51198  	-1.37486  	156.73889  	144.79395  	-20596.22732  	-4213.28474  	0.00485  	0.00002  	0.00406  	0.00499  	0.00624  	0.00000  	0.00000  
8.75932  	33.30722  	5.12491  	5.40264  	28.69498  	-1.18512  	0.05193  	0.49185  	0.52983  	-3.02442  	0.01444  	-0.08579  	-58.48725  	-1.37678  	156.37251  	145.16541  	-20596.63763  	-4213.35931  	0.00485  	0.00002  	0.00405  	0.00500  	0.00624  	0.00000  	0.00000  
9.75868  	33.30696  	5.12505  	5.40323  	28.69724  	-1.18512  	0.05095  	0.49086  	0.53598  	-3.02442  	0.01559  	-0.08581  	-58.45538  	-1.37900  	158.18809  	144.87321  	-20597.07713  	-4213.40332  	0.00486  	0.00002  	0.00405  	0.00498  	0.00624  	0.00000  	0.00000  
10.75931  	33.30731  	5.12572  	5.40339  	28.69958  	-1.18512  	0.05013  	0.49267  	0.52892  	-3.02442  	0.01444  	-0.08588  	-58.43013  	-1.37647  	156.10372  	145.40493  	-20597.66795  	-4213.45346  	0.00485  	0.00002  	0.00405  	0.00496  	0.00625  	0.00000  	0.00000  
11.75947  	33.30710  	5.12564  	5.40240  	28.70161  	-1.18512  	0.05121  	0.49107  	0.53222  	-3.02442  	0.01364  	-0.08582  	-58.40164  	-1.37198  	157.07798  	144.93436  	-20598.06740  	-4213.38928  	0.00485  	0.00002  	0.00404  	0.00498  	0.00624  	0.00000  	0.00000  
12.75944  	33.30767  	5.12623  	5.40307  	28.70424  	-1.18512  	0.04999  	0.49327  	0.53605  	-3.02442  	0.01457  	-0.08578  	-58.37561  	-1.37239  	158.21032  	145.58304  	-20598.77066  	-4213.46500  	0.00486  	0.00002  	0.00405  	0.00496  	0.00625  	0.00000  	0.00000  
13.76055  	33.30747  	5.12474  	5.40248  	28.70675  	-1.18512  	0.05131  	0.49108  	0.53271  	-3.02442  	0.01481  	-0.08581  	-58.34122  	-1.37684  	157.22422  	144.93549  	-20599.27761  	-4213.34021  	0.00485  	0.00002  	0.00405  	0.00499  	0.00624  	0.00000  	0.00000  
14.76035  	33.30695  	5.12389  	5.40273  	28.70753  	-1.18512  	0.04974  	0.49206  	0.53985  	-3.02442  	0.01411  	-0.08580  	-58.32480  	-1.38228  	159.33170  	145.22545  	-20599.33575  	-4213.30374  	0.00486  	0.00002  	0.00405  	0.00496  	0.00624  	0.00000  	0.00000  
15.76009  	33.30649  	5.12401  	5.40098  	28.71061  	-1.18512  	0.04897  	0.49124  	0.53817  	-3.02442  	0.01530  	-0.08575  	-58.27993  	-1.37303  	158.83356  	144.98440  	-20599.91118  	-4213.20637  	0.00486  	0.00002  	0.00405  	0.00494  	0.00624  	0.00000  	0.00000  
16.76136  	33.30662  	5.12405  	5.39991  	28.71266  	-1.18512  	0.05210  	0.49377  	0.53303  	-3.02442  	0.01586  	-0.08569  	-58.25553  	-1.36751  	157.31839  	145.72999  	-20600.38886  	-4213.14422  	0.00485  	0.00003  	0.00405  	0.00500  	0.00625  	0.00000  	0.00000  
17.76266  	33.30667  	5.12331  	5.40111  	28.71459  	-1.18512  	0.05115  	0.49245  	0.53307  	-3.02442  	0.01617  	-0.08578  	-58.23164  	-1.37713  	157.33069  	145.34129  	-20600.82462  	-4213.17159  	0.00485  	0.00002  	0.00405  	0.00498  	0.00624  	0.00000  	0.00000  
18.76275  	33.30685  	5.12374  	5.40084  	28.71697  	-1.18512  	0.04969  	0.49369  	0.53488  	-3.02442  	0.01394  	-0.08576  	-58.20388  	-1.37368  	157.86435  	145.70593  	-20601.38854  	-4213.18155  	0.00486  	0.00002  	0.00404  	0.00495  	0.00625  	0.00000  	0.00000  
19.76454  	33.30706  	5.12396  	5.40057  	28.71821  	-1.18512  	0.05082  	0.49299  	0.53736  	-3.02442  	0.01542  	-0.08579  	-58.19083  	-1.37124  	158.59508  	145.49962  	-20601.70731  	-4213.17834  	0.00486  	0.00002  	0.00405  	0.00498  	0.00625  	0.00000  	0.00000  
20.76451  	33.30645  	5.12354  	5.40089  	28.72074  	-1.18512  	0.04977  	0.49441  	0.53220  	-3.02442  	0.01727  	-0.08572  	-58.15089  	-1.37494  	157.07313  	145.91902  	-20602.12973  	-4213.17203  	0.00485  	0.00003  	0.00406  	0.00496  	0.00625  	0.00000  	0.00000  
21.76737  	33.30634  	5.12411  	5.40012  	28.72160  	-1.18512  	0.05075  	0.49328  	0.53771  	-3.02442  	0.01580  	-0.08578  	-58.13861  	-1.36825  	158.69918  	145.58660  	-20602.29342  	-4213.16028  	0.00486  	0.00002  	0.00405  	0.00497  	0.00625  	0.00000  	0.00000  
22.76834  	33.30623  	5.12394  	5.39957  	28.72427  	-1.18512  	0.05043  	0.49460  	0.53581  	-3.02442  	0.01617  	-0.08576  	-58.10347  	-1.36640  	158.13692  	145.97689  	-20602.85701  	-4213.11666  	0.00486  	0.00002  	0.00405  	0.00497  	0.00625  	0.00000  	0.00000  
23.76839  	33.30726  	5.12436  	5.40016  	28.72640  	-1.18512  	0.05135  	0.49368  	0.52985  	-3.02442  	0.01524  	-0.08580  	-58.08938  	-1.36721  	156.38031  	145.70562  	-20603.55222  	-4213.17736  	0.00485  	0.00002  	0.00405  	0.00499  	0.00625  	0.00000  	0.00000  
24.76832  	33.30750  	5.12493  	5.40093  	28.72792  	-1.18512  	0.04687  	0.49431  	0.53570  	-3.02442  	0.01480  	-0.08576  	-58.07312  	-1.36824  	158.10465  	145.89038  	-20603.93965  	-4213.25784  	0.00486  	0.00002  	0.00405  	0.00490  	0.00625  	0.00000  	0.00000  
25.76840  	33.30794  	5.12515  	5.40071  	28.72988  	-1.18512  	0.04883  	0.49242  	0.53144  	-3.02442  	0.01547  	-0.08573  	-58.05388  	-1.36602  	156.84737  	145.33302  	-20604.46787  	-4213.25783  	0.00485  	0.00003  	0.00405  	0.00494  	0.00624  	0.00000  	0.00000  
26.76835  	33.30871  	5.12532  	5.40095  	28.73232  	-1.18512  	0.04943  	0.49262  	0.53531  	-3.02442  	0.01380  	-0.08574  	-58.03264  	-1.36635  	157.99115  	145.39196  	-20605.17124  	-4213.28265  	0.00486  	0.00003  	0.00404  	0.00495  	0.00624  	0.00000  	0.00000  
27.76842  	33.30830  	5.12514  	5.40205  	28.73407  	-1.18512  	0.05085  	0.49418  	0.52881  	-3.02442  	0.01525  	-0.08580  	-58.00538  	-1.37270  	156.07118  	145.85209  	-20605.46672  	-4213.33783  	0.00485  	0.00002  	0.00405  	0.00498  	0.00625  	0.00000  	0.00000  
28.76952  	33.30862  	5.12482  	5.40086  	28.73685  	-1.18512  	0.04921  	0.49366  	0.53975  	-3.02442  	0.01465  	-0.08586  	-57.97419  	-1.36843  	159.30204  	145.69716  	-20606.14711  	-4213.24736  	0.00486  	0.00002  	0.00405  	0.00494  	0.00625  	0.00000  	0.00000  
29.77053  	33.30896  	5.12411  	5.40064  	28.73895  	-1.18512  	0.05113  	0.49402  	0.52707  	-3.02442  	0.01597  	-0.08583  	-57.95173  	-1.37085  	155.55751  	145.80562  	-20606.68379  	-4213.19148  	0.00484  	0.00002  	0.00405  	0.00498  	0.00625  	0.00000  	0.00000  
30.77131  	33.30948  	5.12501  	5.40105  	28.74082  	-1.18512  	0.04956  	0.49442  	0.54368  	-3.02442  	0.01418  	-0.08581  	-57.93460  	-1.36842  	160.46032  	145.92279  	-20607.20953  	-4213.27053  	0.00487  	0.00002  	0.00405  	0.00495  	0.00625  	0.00000  	0.00000  
31.77140  	33.31062  	5.12453  	5.40105  	28.74235  	-1.18512  	0.05132  	0.49322  	0.53171  	-3.02442  	0.01396  	-0.08571  	-57.92977  	-1.37079  	156.92842  	145.56805  	-20607.79750  	-4213.24082  	0.00485  	0.00003  	0.00404  	0.00499  	0.00625  	0.00000  	0.00000  
32.77203  	33.31015  	5.12428  	5.40022  	28.74304  	-1.18512  	0.04960  	0.49407  	0.53371  	-3.02442  	0.01375  	-0.08576  	-57.91501  	-1.36794  	157.51933  	145.81877  	-20607.84305  	-4213.17681  	0.00485  	0.00002  	0.00404  	0.00495  	0.00625  	0.00000  	0.00000  
33.77246  	33.31040  	5.12355  	5.39997  	28.74448  	-1.18512  	0.05058  	0.49448  	0.52712  	-3.02442  	0.01446  	-0.08577  	-57.90005  	-1.37031  	155.57361  	145.93946  	-20608.21600  	-4213.11743  	0.00484  	0.00002  	0.00405  	0.00497  	0.00625  	0.00000  	0.00000  
34.77454  	33.31133  	5.12416  	5.39916  	28.74589  	-1.18512  	0.04992  	0.49430  	0.53372  	-3.02442  	0.01330  	-0.08574  	-57.89389  	-1.36322  	157.52117  	145.88569  	-20608.72929  	-4213.10560  	0.00485  	0.00003  	0.00404  	0.00496  	0.00625  	0.00000  	0.00000  
35.77383  	33.31101  	5.12348  	5.40103  	28.74791  	-1.18512  	0.05197  	0.49370  	0.53565  	-3.02442  	0.01575  	-0.08582  	-57.86417  	-1.37589  	158.08971  	145.70993  	-20609.10321  	-4213.17691  	0.00486  	0.00002  	0.00405  	0.00500  	0.00625  	0.00000  	0.00000  
36.77530  	33.31061  	5.12426  	5.40165  	28.75046  	-1.18512  	0.04959  	0.49342  	0.53813  	-3.02442  	0.01607  	-0.08580  	-57.82669  	-1.37512  	158.82327  	145.62786  	-20609.57674  	-4213.26066  	0.00486  	0.00002  	0.00405  	0.00495  	0.00625  	0.00000  	0.00000  
37.77569  	33.31154  	5.12466  	5.40147  	28.75220  	-1.18512  	0.04891  	0.49312  	0.53545  	-3.02442  	0.01509  	-0.08574  	-57.81648  	-1.37221  	158.03087  	145.54010  	-20610.16223  	-4213.27422  	0.00486  	0.00003  	0.00405  	0.00494  	0.00625  	0.00000  	0.00000  
38.77673  	33.31276  	5.12511  	5.40218  	28.75391  	-1.18512  	0.05058  	0.49559  	0.53355  	-3.02442  	0.01541  	-0.08584  	-57.81024  	-1.37349  	157.47057  	146.26746  	-20610.80720  	-4213.34371  	0.00485  	0.00002  	0.00405  	0.00497  	0.00626  	0.00000  	0.00000  
39.77789  	33.31214  	5.12512  	5.40197  	28.75424  	-1.18512  	0.04876  	0.49409  	0.53623  	-3.02442  	0.01479  	-0.08577  	-57.79829  	-1.37245  	158.26085  	145.82461  	-20610.74519  	-4213.33214  	0.00486  	0.00002  	0.00405  	0.00494  	0.00625  	0.00000  	0.00000  
40.78035  	33.31124  	5.12421  	5.40088  	28.75521  	-1.18512  	0.04810  	0.49401  	0.53987  	-3.02442  	0.01446  	-0.08571  	-57.77451  	-1.37153  	159.33661  	145.80218  	-20610.76148  	-4213.21202  	0.00486  	0.00003  	0.00405  	0.00492  	0.00625  	0.00000  	0.00000  
41.78145  	33.31242  	5.12362  	5.39959  	28.75666  	-1.18512  	0.04989  	0.49317  	0.53958  	-3.02442  	0.01778  	-0.08576  	-57.77114  	-1.36807  	159.25079  	145.55488  	-20611.33733  	-4213.09920  	0.00486  	0.00002  	0.00406  	0.00496  	0.00625  	0.00000  	0.00000  
42.78243  	33.31292  	5.12365  	5.39912  	28.75843  	-1.18512  	0.05084  	0.49366  	0.53522  	-3.02442  	0.01612  	-0.08569  	-57.75509  	-1.36560  	157.96295  	145.69697  	-20611.83677  	-4213.07277  	0.00486  	0.00003  	0.00405  	0.00498  	0.00625  	0.00000  	0.00000  
43.78204  	33.31246  	5.12402  	5.39977  	28.75934  	-1.18512  	0.04958  	0.49429  	0.54037  	-3.02442  	0.01533  	-0.08579  	-57.73756  	-1.36698  	159.48457  	145.88462  	-20611.93633  	-4213.13351  	0.00486  	0.00002  	0.00405  	0.00495  	0.00625  	0.00000  	0.00000  
44.78253  	33.31261  	5.12308  	5.40039  	28.76030  	-1.18512  	0.04908  	0.49431  	0.53240  	-3.02442  	0.01451  	-0.08572  	-57.72732  	-1.37475  	157.13317  	145.89117  	-20612.17973  	-4213.11468  	0.00485  	0.00003  	0.00405  	0.00494  	0.00625  	0.00000  	0.00000  
45.78339  	33.31265  	5.12315  	5.39987  	28.76228  	-1.18512  	0.04891  	0.49483  	0.53852  	-3.02442  	0.01246  	-0.08571  	-57.70273  	-1.37177  	158.93766  	146.04481  	-20612.62456  	-4213.08764  	0.00486  	0.00003  	0.00404  	0.00494  	0.00626  	0.00000  	0.00000  
46.78421  	33.31281  	5.12365  	5.39981  	28.76275  	-1.18512  	0.05127  	0.49701  	0.53606  	-3.02442  	0.01451  	-0.08578  	-57.69876  	-1.36899  	158.21156  	146.68741  	-20612.76231  	-4213.11397  	0.00486  	0.00002  	0.00405  	0.00498  	0.00627  	0.00000  	0.00000  
47.78477  	33.31311  	5.12402  	5.40045  	28.76388  	-1.18512  	0.05018  	0.49458  	0.53623  	-3.02442  	0.01293  	-0.08574  	-57.68826  	-1.37037  	158.26321  	145.97101  	-20613.07713  	-4213.17481  	0.00486  	0.00003  	0.00404  	0.00496  	0.00625  	0.00000  	0.00000  
48.78647  	33.31356  	5.12423  	5.39992  	28.76563  	-1.18512  	0.04891  	0.49690  	0.53906  	-3.02442  	0.01282  	-0.08577  	-57.67178  	-1.36670  	159.09688  	146.65429  	-20613.56012  	-4213.15542  	0.00486  	0.00002  	0.00404  	0.00494  	0.00626  	0.00000  	0.00000  
49.78638  	33.31358  	5.12324  	5.40063  	28.76666  	-1.18512  	0.04971  	0.49564  	0.53615  	-3.02442  	0.01497  	-0.08572  	-57.65900  	-1.37515  	158.23911  	146.28359  	-20613.79168  	-4213.13853  	0.00486  	0.00003  	0.00405  	0.00495  	0.00626  	0.00000  	0.00000  
50.78650  	33.31402  	5.12309  	5.39998  	28.76922  	-1.18512  	0.05002  	0.49643  	0.53773  	-3.02442  	0.01475  	-0.08588  	-57.63212  	-1.37262  	158.70427  	146.51689  	-20614.45022  	-4213.09046  	0.00486  	0.00002  	0.00405  	0.00496  	0.00626  	0.00000  	0.00000  
51.78632  	33.31395  	5.12379  	5.39928  	28.76889  	-1.18512  	0.04983  	0.49568  	0.54504  	-3.02442  	0.01457  	-0.08573  	-57.63542  	-1.36569  	160.86141  	146.29559  	-20614.36210  	-4213.09078  	0.00487  	0.00003  	0.00405  	0.00496  	0.00626  	0.00000  	0.00000  
52.78633  	33.31381  	5.12359  	5.39945  	28.77070  	-1.18512  	0.04886  	0.49650  	0.53798  	-3.02442  	0.01630  	-0.08572  	-57.61075  	-1.36751  	158.78027  	146.53689  	-20614.73016  	-4213.08846  	0.00486  	0.00003  	0.00405  	0.00494  	0.00626  	0.00000  	0.00000  
53.78842  	33.31357  	5.12269  	5.40018  	28.77213  	-1.18512  	0.05155  	0.49655  	0.53412  	-3.02442  	0.01698  	-0.08575  	-57.58955  	-1.37558  	157.64052  	146.55153  	-20614.99285  	-4213.07881  	0.00485  	0.00002  	0.00405  	0.00499  	0.00626  	0.00000  	0.00000  
54.78834  	33.31346  	5.12330  	5.40017  	28.77367  	-1.18512  	0.05129  	0.49650  	0.54431  	-3.02442  	0.01564  	-0.08571  	-57.56858  	-1.37251  	160.64784  	146.53638  	-20615.30483  	-4213.11472  	0.00487  	0.00003  	0.00405  	0.00498  	0.00626  	0.00000  	0.00000  
55.78834  	33.31310  	5.12384  	5.39942  	28.77510  	-1.18512  	0.04981  	0.49630  	0.53530  	-3.02442  	0.01474  	-0.08584  	-57.54589  	-1.36613  	157.98897  	146.47671  	-20615.54004  	-4213.10235  	0.00486  	0.00002  	0.00405  	0.00496  	0.00626  	0.00000  	0.00000  
56.78834  	33.31404  	5.12315  	5.39863  	28.77654  	-1.18512  	0.05152  	0.49657  	0.54352  	-3.02442  	0.01614  	-0.08578  	-57.53962  	-1.36562  	160.41508  	146.55680  	-20616.06325  	-4213.01299  	0.00487  	0.00002  	0.00405  	0.00499  	0.00626  	0.00000  	0.00000  
57.78841  	33.31396  	5.12338  	5.39850  	28.77721  	-1.18512  	0.05058  	0.49685  	0.53189  	-3.02442  	0.01728  	-0.08574  	-57.53009  	-1.36383  	156.98103  	146.63974  	-20616.19482  	-4213.01944  	0.00485  	0.00003  	0.00406  	0.00497  	0.00626  	0.00000  	0.00000  
58.79034  	33.31410  	5.12414  	5.39913  	28.77853  	-1.18512  	0.05057  	0.49654  	0.54238  	-3.02442  	0.01457  	-0.08573  	-57.51505  	-1.36319  	160.07855  	146.54835  	-20616.51564  	-4213.10250  	0.00487  	0.00003  	0.00405  	0.00497  	0.00626  	0.00000  	0.00000  
59.79039  	33.31405  	5.12275  	5.39768  	28.77901  	-1.18512  	0.04878  	0.49792  	0.54183  	-3.02442  	0.01564  	-0.08584  	-57.50845  	-1.36293  	159.91534  	146.95563  	-20616.61100  	-4212.93221  	0.00487  	0.00002  	0.00405  	0.00494  	0.00627  	0.00000  	0.00000  
60.79007  	33.31404  	5.12231  	5.39795  	28.77998  	-1.18512  	0.04976  	0.49748  	0.53863  	-3.02442  	0.01472  	-0.08575  	-57.49593  	-1.36644  	158.97049  	146.82582  	-20616.82109  	-4212.92214  	0.00486  	0.00002  	0.00405  	0.00496  	0.00627  	0.00000  	0.00000  
61.79072  	33.31427  	5.12293  	5.39736  	28.78037  	-1.18512  	0.05045  	0.49770  	0.53812  	-3.02442  	0.01463  	-0.08586  	-57.49399  	-1.36044  	158.82010  	146.88922  	-20616.95609  	-4212.92330  	0.00486  	0.00002  	0.00405  	0.00497  	0.00627  	0.00000  	0.00000  
62.79136  	33.31418  	5.12140  	5.39633  	28.78193  	-1.18512  	0.04939  	0.49725  	0.53899  	-3.02442  	0.01368  	-0.08581  	-57.47298  	-1.36294  	159.07767  	146.75810  	-20617.28079  	-4212.77023  	0.00486  	0.00002  	0.00404  	0.00495  	0.00627  	0.00000  	0.00000  
63.79104  	33.31398  	5.12068  	5.39537  	28.78310  	-1.18512  	0.04720  	0.49769  	0.54537  	-3.02442  	0.01330  	-0.08569  	-57.45563  	-1.36173  	160.95943  	146.88631  	-20617.49374  	-4212.66929  	0.00487  	0.00003  	0.00404  	0.00491  	0.00627  	0.00000  	0.00000  
64.79108  	33.31342  	5.12092  	5.39520  	28.78546  	-1.18512  	0.04885  	0.49780  	0.54487  	-3.02442  	0.01345  	-0.08574  	-57.41872  	-1.35969  	160.81246  	146.91978  	-20617.88970  	-4212.67379  	0.00487  	0.00003  	0.00404  	0.00494  	0.00627  	0.00000  	0.00000  
65.79174  	33.31358  	5.12010  	5.39484  	28.78644  	-1.18512  	0.04767  	0.49833  	0.53902  	-3.02442  	0.01482  	-0.08579  	-57.40821  	-1.36195  	159.08430  	147.07782  	-20618.13993  	-4212.60232  	0.00486  	0.00002  	0.00405  	0.00492  	0.00627  	0.00000  	0.00000  
66.79280  	33.31405  	5.11917  	5.39372  	28.78764  	-1.18512  	0.05022  	0.49732  	0.54452  	-3.02442  	0.01390  	-0.08578  	-57.39907  	-1.36105  	160.70864  	146.77791  	-20618.50870  	-4212.47947  	0.00487  	0.00002  	0.00404  	0.00496  	0.00627  	0.00000  	0.00000  
67.79363  	33.31386  	5.11970  	5.39319  	28.78934  	-1.18512  	0.04998  	0.49856  	0.54359  	-3.02442  	0.01686  	-0.08577  	-57.37511  	-1.35575  	160.43340  	147.14355  	-20618.83714  	-4212.47937  	0.00487  	0.00002  	0.00405  	0.00496  	0.00627  	0.00000  	0.00000  
68.79401  	33.31550  	5.11903  	5.39381  	28.78965  	-1.18512  	0.05080  	0.49770  	0.54382  	-3.02442  	0.01667  	-0.08577  	-57.39203  	-1.36219  	160.50164  	146.88920  	-20619.26686  	-4212.47693  	0.00487  	0.00002  	0.00405  	0.00498  	0.00627  	0.00000  	0.00000  
69.79439  	33.31550  	5.11849  	5.39437  	28.79098  	-1.18512  	0.05222  	0.49884  	0.53882  	-3.02442  	0.01451  	-0.08583  	-57.37509  	-1.36765  	159.02687  	147.22792  	-20619.56214  	-4212.47812  	0.00486  	0.00002  	0.00405  	0.00500  	0.00627  	0.00000  	0.00000  
70.79467  	33.31485  	5.11785  	5.39280  	28.79178  	-1.18512  	0.05042  	0.49728  	0.54053  	-3.02442  	0.01368  	-0.08569  	-57.35672  	-1.36299  	159.53289  	146.76573  	-20619.59395  	-4212.34548  	0.00486  	0.00003  	0.00404  	0.00497  	0.00627  	0.00000  	0.00000  
71.79498  	33.31499  	5.11799  	5.39353  	28.79209  	-1.18512  	0.05256  	0.49850  	0.53718  	-3.02442  	0.01793  	-0.08571  	-57.35458  	-1.36592  	158.54145  	147.12810  	-20619.69396  	-4212.39712  	0.00486  	0.00003  	0.00406  	0.00501  	0.00627  	0.00000  	0.00000  
72.79479  	33.31489  	5.11776  	5.39364  	28.79312  	-1.18512  	0.04886  	0.49800  	0.53794  	-3.02442  	0.01746  	-0.08558  	-57.34022  	-1.36762  	158.76592  	146.97985  	-20619.89603  	-4212.39046  	0.00486  	0.00003  	0.00406  	0.00494  	0.00627  	0.00000  	0.00000  
73.79601  	33.31589  	5.11773  	5.39385  	28.79438  	-1.18512  	0.05278  	0.49852  	0.53806  	-3.02442  	0.01251  	-0.08588  	-57.33700  	-1.36881  	158.80273  	147.13317  	-20620.39257  	-4212.40074  	0.00486  	0.00002  	0.00404  	0.00501  	0.00627  	0.00000  	0.00000  
74.79630  	33.31646  	5.11727  	5.39371  	28.79550  	-1.18512  	0.05117  	0.49944  	0.54433  	-3.02442  	0.01557  	-0.08572  	-57.32991  	-1.37041  	160.65386  	147.40520  	-20620.76514  	-4212.36544  	0.00487  	0.00003  	0.00405  	0.00498  	0.00628  	0.00000  	0.00000  
75.79633  	33.31632  	5.11727  	5.39346  	28.79699  	-1.18512  	0.05151  	0.49876  	0.53922  	-3.02442  	0.01571  	-0.08584  	-57.30930  	-1.36916  	159.14390  	147.20240  	-20621.06271  	-4212.35025  	0.00486  	0.00002  	0.00405  	0.00499  	0.00627  	0.00000  	0.00000  
76.79636  	33.31712  	5.11737  	5.39371  	28.79822  	-1.18512  	0.05017  	0.49905  	0.53988  	-3.02442  	0.01388  	-0.08580  	-57.30389  	-1.36991  	159.34073  	147.28762  	-20621.50715  	-4212.37053  	0.00486  	0.00002  	0.00404  	0.00496  	0.00627  	0.00000  	0.00000  
77.79613  	33.31751  	5.11789  	5.39376  	28.79914  	-1.18512  	0.05035  	0.49679  	0.54110  	-3.02442  	0.01596  	-0.08581  	-57.29711  	-1.36761  	159.69918  	146.62168  	-20621.79560  	-4212.40527  	0.00487  	0.00002  	0.00405  	0.00497  	0.00626  	0.00000  	0.00000  
78.79630  	33.31843  	5.11797  	5.39361  	28.80082  	-1.18512  	0.04890  	0.49800  	0.54253  	-3.02442  	0.01306  	-0.08576  	-57.28750  	-1.36643  	160.12162  	146.97901  	-20622.36855  	-4212.40142  	0.00487  	0.00002  	0.00404  	0.00494  	0.00627  	0.00000  	0.00000  
79.79836  	33.31887  	5.11713  	5.39325  	28.80211  	-1.18512  	0.04939  	0.49656  	0.54846  	-3.02442  	0.01652  	-0.08576  	-57.27676  	-1.36877  	161.87273  	146.55501  	-20622.74900  	-4212.32908  	0.00488  	0.00002  	0.00405  	0.00495  	0.00626  	0.00000  	0.00000  
80.79899  	33.31877  	5.11712  	5.39347  	28.80311  	-1.18512  	0.05096  	0.49700  	0.53971  	-3.02442  	0.01702  	-0.08579  	-57.26278  	-1.36995  	159.28943  	146.68350  	-20622.94810  	-4212.34201  	0.00486  	0.00002  	0.00405  	0.00498  	0.00627  	0.00000  	0.00000  
81.79968  	33.31974  	5.11590  	5.39277  	28.80429  	-1.18512  	0.05232  	0.49580  	0.53216  	-3.02442  	0.01335  	-0.08576  	-57.26011  	-1.37252  	157.06049  	146.33075  	-20623.41803  	-4212.22624  	0.00485  	0.00002  	0.00404  	0.00500  	0.00626  	0.00000  	0.00000  
82.80162  	33.31952  	5.11551  	5.39358  	28.80364  	-1.18512  	0.05094  	0.49746  	0.54872  	-3.02442  	0.01347  	-0.08581  	-57.26562  	-1.37847  	161.94885  	146.81927  	-20623.22668  	-4212.25155  	0.00488  	0.00002  	0.00404  	0.00498  	0.00627  	0.00000  	0.00000  
83.80184  	33.31990  	5.11656  	5.39310  	28.80546  	-1.18512  	0.05130  	0.49673  	0.53516  	-3.02442  	0.01697  	-0.08567  	-57.24735  	-1.37094  	157.94667  	146.60340  	-20623.71257  	-4212.28588  	0.00486  	0.00003  	0.00405  	0.00498  	0.00626  	0.00000  	0.00000  
84.80220  	33.31994  	5.11541  	5.39146  	28.80601  	-1.18512  	0.04867  	0.49704  	0.54413  	-3.02442  	0.01605  	-0.08576  	-57.24097  	-1.36844  	160.59423  	146.69443  	-20623.84172  	-4212.11841  	0.00487  	0.00002  	0.00405  	0.00493  	0.00627  	0.00000  	0.00000  
85.80240  	33.32088  	5.11475  	5.39103  	28.80683  	-1.18512  	0.05074  	0.50018  	0.53568  	-3.02442  	0.01230  	-0.08589  	-57.24244  	-1.36959  	158.09996  	147.62167  	-20624.22788  	-4212.05315  	0.00486  	0.00002  	0.00404  	0.00497  	0.00628  	0.00000  	0.00000  
86.80200  	33.32013  	5.11505  	5.39217  	28.80745  	-1.18512  	0.05125  	0.49723  	0.54700  	-3.02442  	0.01447  	-0.08566  	-57.22507  	-1.37379  	161.44037  	146.75158  	-20624.20059  	-4212.13911  	0.00488  	0.00003  	0.00405  	0.00498  	0.00627  	0.00000  	0.00000  
87.80181  	33.32104  	5.11482  	5.39177  	28.80927  	-1.18512  	0.05176  	0.49743  	0.53976  	-3.02442  	0.01529  	-0.08582  	-57.21355  	-1.37290  	159.30548  	146.81000  	-20624.80037  	-4212.10150  	0.00486  	0.00002  	0.00405  	0.00499  	0.00627  	0.00000  	0.00000  
88.80337  	33.32113  	5.11433  	5.39093  	28.80870  	-1.18512  	0.05056  	0.49641  	0.54275  	-3.02442  	0.01415  	-0.08581  	-57.22190  	-1.37119  	160.18678  	146.50947  	-20624.69550  	-4212.02201  	0.00487  	0.00002  	0.00405  	0.00497  	0.00626  	0.00000  	0.00000  
89.80452  	33.32121  	5.11399  	5.39072  	28.80883  	-1.18512  	0.04865  	0.49669  	0.53994  	-3.02442  	0.01655  	-0.08570  	-57.22121  	-1.37183  	159.35849  	146.59206  	-20624.74069  	-4211.98860  	0.00486  	0.00003  	0.00405  	0.00493  	0.00626  	0.00000  	0.00000  
90.80393  	33.32191  	5.11396  	5.39102  	28.80917  	-1.18512  	0.05061  	0.49706  	0.54103  	-3.02442  	0.01508  	-0.08571  	-57.22590  	-1.37347  	159.67827  	146.70277  	-20624.96939  	-4212.00446  	0.00487  	0.00003  	0.00405  	0.00497  	0.00627  	0.00000  	0.00000  
91.80433  	33.32131  	5.11449  	5.39072  	28.81003  	-1.18512  	0.04836  	0.49782  	0.54310  	-3.02442  	0.01605  	-0.08577  	-57.20722  	-1.36937  	160.29082  	146.92741  	-20625.02680  	-4212.01866  	0.00487  	0.00002  	0.00405  	0.00493  	0.00627  	0.00000  	0.00000  
92.80372  	33.32190  	5.11365  	5.39037  	28.81135  	-1.18512  	0.05078  	0.49837  	0.54125  	-3.02442  	0.01368  	-0.08575  	-57.19813  	-1.37175  	159.74460  	147.08892  	-20625.44601  	-4211.94738  	0.00487  	0.00002  	0.00404  	0.00497  	0.00627  	0.00000  	0.00000  
93.80545  	33.32166  	5.11368  	5.39010  	28.81182  	-1.18512  	0.04859  	0.49926  	0.54125  	-3.02442  	0.01802  	-0.08588  	-57.18907  	-1.37031  	159.74512  	147.35023  	-20625.49832  	-4211.93319  	0.00487  	0.00002  	0.00406  	0.00493  	0.00628  	0.00000  	0.00000  
94.80473  	33.32152  	5.11426  	5.39014  	28.81178  	-1.18512  	0.04869  	0.49936  	0.54281  	-3.02442  	0.01340  	-0.08575  	-57.18774  	-1.36764  	160.20365  	147.38006  	-20625.45769  	-4211.97035  	0.00487  	0.00002  	0.00404  	0.00493  	0.00628  	0.00000  	0.00000  
95.80632  	33.32210  	5.11400  	5.39073  	28.81149  	-1.18512  	0.05072  	0.49939  	0.53647  	-3.02442  	0.01582  	-0.08580  	-57.19876  	-1.37183  	158.33220  	147.39048  	-20625.52150  	-4211.98975  	0.00486  	0.00002  	0.00405  	0.00497  	0.00628  	0.00000  	0.00000  
96.80633  	33.32125  	5.11372  	5.39040  	28.81223  	-1.18512  	0.05029  	0.49922  	0.53885  	-3.02442  	0.01411  	-0.08579  	-57.17864  	-1.37155  	159.03616  	147.33926  	-20625.49705  	-4211.95330  	0.00486  	0.00002  	0.00405  	0.00497  	0.00628  	0.00000  	0.00000  
97.80632  	33.32204  	5.11459  	5.39016  	28.81284  	-1.18512  	0.04963  	0.49816  	0.54189  	-3.02442  	0.01350  	-0.08587  	-57.18099  	-1.36610  	159.93195  	147.02610  	-20625.80474  	-4211.99109  	0.00487  	0.00002  	0.00404  	0.00495  	0.00627  	0.00000  	0.00000  
98.80839  	33.32211  	5.11411  	5.39008  	28.81321  	-1.18512  	0.04785  	0.50003  	0.54739  	-3.02442  	0.01274  	-0.08584  	-57.17716  	-1.36807  	161.55516  	147.57736  	-20625.90243  	-4211.95731  	0.00488  	0.00002  	0.00404  	0.00492  	0.00628  	0.00000  	0.00000  
99.80930  	33.32150  	5.11417  	5.39050  	28.81450  	-1.18512  	0.04989  	0.49829  	0.54284  	-3.02442  	0.01482  	-0.08580  	-57.15305  	-1.36984  	160.21417  	147.06463  	-20626.04956  	-4211.98616  	0.00487  	0.00002  	0.00405  	0.00496  	0.00627  	0.00000  	0.00000  
100.81039  	33.32246  	5.11464  	5.39020  	28.81470  	-1.18512  	0.04745  	0.49997  	0.53998  	-3.02442  	0.01475  	-0.08575  	-57.16266  	-1.36604  	159.36942  	147.56104  	-20626.30627  	-4211.99691  	0.00486  	0.00002  	0.00405  	0.00491  	0.00628  	0.00000  	0.00000  
101.80983  	33.32259  	5.11367  	5.39018  	28.81420  	-1.18512  	0.04955  	0.49828  	0.54463  	-3.02442  	0.01459  	-0.08579  	-57.17076  	-1.37072  	160.74171  	147.06270  	-20626.22504  	-4211.93732  	0.00487  	0.00002  	0.00405  	0.00495  	0.00627  	0.00000  	0.00000  
102.81034  	33.32127  	5.11411  	5.39014  	28.81471  	-1.18512  	0.05035  	0.49983  	0.54069  	-3.02442  	0.01260  	-0.08575  	-57.14741  	-1.36837  	159.57956  	147.52031  	-20626.04623  	-4211.96143  	0.00487  	0.00002  	0.00404  	0.00497  	0.00628  	0.00000  	0.00000  
103.81039  	33.32255  	5.11381  	5.39008  	28.81509  	-1.18512  	0.05050  	0.49844  	0.53978  	-3.02442  	0.01632  	-0.08580  	-57.15885  	-1.36957  	159.30963  	147.11001  	-20626.41281  	-4211.93951  	0.00486  	0.00002  	0.00405  	0.00497  	0.00627  	0.00000  	0.00000  
104.81019  	33.32190  	5.11395  	5.39000  	28.81532  	-1.18512  	0.04989  	0.50056  	0.54396  	-3.02442  	0.01369  	-0.08584  	-57.14776  	-1.36842  	160.54396  	147.73443  	-20626.31819  	-4211.94312  	0.00487  	0.00002  	0.00404  	0.00496  	0.00628  	0.00000  	0.00000  
105.80981  	33.32174  	5.11358  	5.39018  	28.81569  	-1.18512  	0.05277  	0.49766  	0.54356  	-3.02442  	0.01368  	-0.08572  	-57.14105  	-1.37120  	160.42567  	146.87903  	-20626.36651  	-4211.93150  	0.00487  	0.00003  	0.00404  	0.00501  	0.00627  	0.00000  	0.00000  
106.81040  	33.32222  	5.11383  	5.39014  	28.81669  	-1.18512  	0.04816  	0.50043  	0.54477  	-3.02442  	0.01352  	-0.08585  	-57.13450  	-1.36976  	160.78333  	147.69522  	-20626.69130  	-4211.94453  	0.00487  	0.00002  	0.00404  	0.00492  	0.00628  	0.00000  	0.00000  
107.80989  	33.32168  	5.11404  	5.38926  	28.81751  	-1.18512  	0.05214  	0.50031  	0.54261  	-3.02442  	0.01380  	-0.08572  	-57.11720  	-1.36438  	160.14629  	147.66007  	-20626.75116  	-4211.90397  	0.00487  	0.00003  	0.00404  	0.00500  	0.00628  	0.00000  	0.00000  
108.81045  	33.32116  	5.11259  	5.38976  	28.81768  	-1.18512  	0.04872  	0.49915  	0.54427  	-3.02442  	0.01431  	-0.08576  	-57.10843  	-1.37403  	160.63534  	147.31952  	-20626.67504  	-4211.84753  	0.00487  	0.00002  	0.00405  	0.00494  	0.00627  	0.00000  	0.00000  
109.80971  	33.32125  	5.11254  	5.38920  	28.81760  	-1.18512  	0.05091  	0.49965  	0.53626  	-3.02442  	0.01469  	-0.08575  	-57.11057  	-1.37148  	158.27000  	147.46591  	-20626.67934  	-4211.81073  	0.00486  	0.00002  	0.00405  	0.00498  	0.00628  	0.00000  	0.00000  
110.81033  	33.32088  	5.11258  	5.38920  	28.81727  	-1.18512  	0.04934  	0.49913  	0.54843  	-3.02442  	0.01474  	-0.08571  	-57.11007  	-1.37130  	161.86439  	147.31234  	-20626.52498  	-4211.81303  	0.00488  	0.00003  	0.00405  	0.00495  	0.00627  	0.00000  	0.00000  
111.81246  	33.32085  	5.11201  	5.38884  	28.81866  	-1.18512  	0.05076  	0.49913  	0.54132  	-3.02442  	0.01401  	-0.08581  	-57.09200  	-1.37232  	159.76576  	147.31195  	-20626.82230  	-4211.75664  	0.00487  	0.00002  	0.00404  	0.00497  	0.00627  	0.00000  	0.00000  
112.81327  	33.32112  	5.11126  	5.38818  	28.81858  	-1.18512  	0.05003  	0.50001  	0.54563  	-3.02442  	0.01629  	-0.08571  	-57.09654  	-1.37276  	161.03690  	147.57320  	-20626.86293  	-4211.67221  	0.00487  	0.00003  	0.00405  	0.00496  	0.00628  	0.00000  	0.00000  
113.81328  	33.32127  	5.11091  	5.38750  	28.81960  	-1.18512  	0.05121  	0.50036  	0.54406  	-3.02442  	0.01513  	-0.08579  	-57.08554  	-1.37112  	160.57338  	147.67649  	-20627.12165  	-4211.61053  	0.00487  	0.00002  	0.00405  	0.00498  	0.00628  	0.00000  	0.00000  
114.81357  	33.32123  	5.11040  	5.38746  	28.81956  	-1.18512  	0.05274  	0.50071  	0.54505  	-3.02442  	0.01576  	-0.08586  	-57.08556  	-1.37348  	160.86489  	147.77864  	-20627.10543  	-4211.57761  	0.00487  	0.00002  	0.00405  	0.00501  	0.00628  	0.00000  	0.00000  
115.81431  	33.32105  	5.11080  	5.38670  	28.82139  	-1.18512  	0.05280  	0.49965  	0.53618  	-3.02442  	0.01614  	-0.08578  	-57.06002  	-1.36773  	158.24794  	147.46652  	-20627.46723  	-4211.55652  	0.00486  	0.00002  	0.00405  	0.00501  	0.00628  	0.00000  	0.00000  
116.81430  	33.32163  	5.11061  	5.38578  	28.82100  	-1.18512  	0.05012  	0.49864  	0.54313  	-3.02442  	0.01215  	-0.08565  	-57.07239  	-1.36412  	160.29920  	147.16936  	-20627.50804  	-4211.48911  	0.00487  	0.00003  	0.00404  	0.00496  	0.00627  	0.00000  	0.00000  
117.81426  	33.32124  	5.11024  	5.38584  	28.82096  	-1.18512  	0.04671  	0.14108  	0.14442  	-3.02442  	0.01818  	-0.08574  	-57.06800  	-1.36625  	42.62306  	41.63806  	-20627.41386  	-4211.47099  	0.00423  	0.00003  	0.00406  	0.00490  	0.00463  	0.00000  	0.00000  
118.81642  	33.30681  	5.10987  	5.38562  	28.81366  	-1.18512  	0.01617  	0.01647  	-0.01062  	-3.02442  	0.01332  	-0.08589  	-56.97757  	-1.36696  	-3.13517  	4.86188  	-20622.63586  	-4211.43548  	0.00398  	0.00002  	0.00404  	0.00431  	0.00405  	0.00000  	0.00000  
119.81607  	33.26754  	5.10942  	5.38412  	28.80811  	-1.18512  	-0.00085  	0.01617  	-0.00495  	-3.02442  	0.01764  	-0.08570  	-56.54988  	-1.36175  	-1.46099  	4.77257  	-20612.78157  	-4211.31834  	0.00399  	0.00003  	0.00406  	0.00398  	0.00405  	0.00000  	0.00000  
120.81633  	33.23563  	5.10974  	5.37404  	28.80454  	-1.18512  	-0.00078  	0.01493  	-0.00251  	-3.02442  	0.01106  	-0.08586  	-56.19069  	-1.31024  	-0.74061  	4.40691  	-20604.98091  	-4210.73294  	0.00400  	0.00002  	0.00404  	0.00398  	0.00404  	0.00000  	0.00000  
