10/31/2024 10:39:04Time	T_hot_in(C)	T_cold_in(C)	T_cold_out(C)	T_hot_out(C)	mdot_cold(kg/s)	ASFASIFUAS(kg/s)	Diferencial_cold(bar)	Diferencial_hot(bar)	mdot_hot(kg/s)	ABS_cold(bar)	ABS_hot(bar)	q_cold(kW)	q_hot(kW)	ASFASYFY	Tau_cold_haste	Re_hot	Re_cold	U_global	PSIG_cold(bar)	R_fouling	PSIG_hot(bar)	PSID_hot(bar)	m_dot_hot	PSID_cold(bar)	m_dot_cold
1.74398  	0.00000  	0.00000  	0.00000  	0.00000  	-1.18512  	-0.20833  	-0.86278  	-2.50000  	-3.02442  	-1.25000  	-0.08628  	-0.00000  	-0.00000  	-737.84722  	-254.63905  	-9234.48090  	-3618.55272  	0.00000  	0.00000  	0.00000  	0.00000  	0.00000  	0.00000  	0.00000  
2.74379  	33.28786  	5.06549  	5.29233  	25.28726  	-1.18512  	0.01996  	0.11827  	0.10547  	-3.02442  	0.01327  	-0.08584  	-101.45844  	-1.12455  	31.12775  	34.90594  	-19847.49331  	-4203.18128  	0.00417  	0.00002  	0.00404  	0.00438  	0.00452  	0.00000  	0.00000  
3.74472  	33.28771  	5.06431  	5.29323  	25.28626  	-1.18512  	0.01824  	0.11731  	0.10854  	-3.02442  	0.01639  	-0.08574  	-101.46928  	-1.13486  	32.03498  	34.62361  	-19847.24286  	-4203.16398  	0.00417  	0.00003  	0.00405  	0.00435  	0.00452  	0.00000  	0.00000  
4.74491  	33.28926  	5.06420  	5.29203  	25.28585  	-1.18512  	0.01903  	0.12112  	0.11176  	-3.02442  	0.01590  	-0.08577  	-101.49410  	-1.12945  	32.98497  	35.74660  	-19847.49181  	-4203.08542  	0.00418  	0.00002  	0.00405  	0.00437  	0.00453  	0.00000  	0.00000  
5.74712  	33.29202  	5.06407  	5.29167  	25.28707  	-1.18512  	0.02162  	0.12083  	0.10849  	-3.02442  	0.01536  	-0.08584  	-101.51366  	-1.12833  	32.01953  	35.66194  	-19848.35730  	-4203.05657  	0.00417  	0.00002  	0.00405  	0.00442  	0.00453  	0.00000  	0.00000  
6.74802  	33.29376  	5.06366  	5.29076  	25.28971  	-1.18512  	0.01622  	0.12239  	0.10713  	-3.02442  	0.01212  	-0.08581  	-101.50235  	-1.12582  	31.61698  	36.12266  	-19849.30909  	-4202.97704  	0.00417  	0.00002  	0.00404  	0.00431  	0.00454  	0.00000  	0.00000  
7.74898  	33.29392  	5.06304  	5.29098  	25.29364  	-1.18512  	0.01953  	0.12201  	0.11371  	-3.02442  	0.01461  	-0.08580  	-101.45456  	-1.13003  	33.56030  	36.00955  	-19850.19714  	-4202.95350  	0.00418  	0.00002  	0.00405  	0.00437  	0.00454  	0.00000  	0.00000  
8.74898  	33.29549  	5.06375  	5.29237  	25.29974  	-1.18512  	0.01861  	0.12210  	0.11174  	-3.02442  	0.01289  	-0.08577  	-101.39700  	-1.13338  	32.97994  	36.03563  	-19851.86300  	-4203.07935  	0.00418  	0.00002  	0.00404  	0.00436  	0.00454  	0.00000  	0.00000  
9.74885  	33.29528  	5.06371  	5.29270  	25.30558  	-1.18512  	0.01956  	0.12299  	0.11119  	-3.02442  	0.01504  	-0.08572  	-101.32027  	-1.13520  	32.81675  	36.29965  	-19853.08880  	-4203.09646  	0.00418  	0.00003  	0.00405  	0.00438  	0.00454  	0.00000  	0.00000  
10.75100  	33.29592  	5.06442  	5.29233  	25.31175  	-1.18512  	0.01886  	0.12372  	0.11604  	-3.02442  	0.01369  	-0.08576  	-101.25012  	-1.12983  	34.24677  	36.51327  	-19854.56853  	-4203.11729  	0.00419  	0.00002  	0.00404  	0.00436  	0.00455  	0.00000  	0.00000  
11.75105  	33.29551  	5.06347  	5.29268  	25.32001  	-1.18512  	0.01744  	0.12290  	0.10818  	-3.02442  	0.01238  	-0.08570  	-101.14026  	-1.13628  	31.92710  	36.27309  	-19856.27642  	-4203.08136  	0.00417  	0.00003  	0.00404  	0.00433  	0.00454  	0.00000  	0.00000  
12.75100  	33.29515  	5.06360  	5.29410  	25.32821  	-1.18512  	0.02034  	0.12348  	0.11345  	-3.02442  	0.01431  	-0.08580  	-101.03162  	-1.14269  	33.48368  	36.44294  	-19857.97921  	-4203.17390  	0.00418  	0.00002  	0.00405  	0.00439  	0.00454  	0.00000  	0.00000  
13.75105  	33.29795  	5.06391  	5.29374  	25.33606  	-1.18512  	0.01756  	0.12165  	0.11209  	-3.02442  	0.01369  	-0.08582  	-100.96761  	-1.13937  	33.08242  	35.90349  	-19860.29572  	-4203.17102  	0.00418  	0.00002  	0.00404  	0.00434  	0.00454  	0.00000  	0.00000  
14.75063  	33.30224  	5.06412  	5.29365  	25.34281  	-1.18512  	0.01847  	0.12244  	0.11177  	-3.02442  	0.01508  	-0.08575  	-100.93641  	-1.13789  	32.98858  	36.13823  	-19862.69388  	-4203.17819  	0.00418  	0.00002  	0.00405  	0.00435  	0.00454  	0.00000  	0.00000  
15.75252  	33.30492  	5.06267  	5.29360  	25.34903  	-1.18512  	0.01851  	0.11987  	0.10698  	-3.02442  	0.01468  	-0.08575  	-100.89158  	-1.14485  	31.57484  	35.37693  	-19864.62885  	-4203.08843  	0.00417  	0.00002  	0.00405  	0.00436  	0.00453  	0.00000  	0.00000  
16.75283  	33.30389  	5.06340  	5.29326  	25.35600  	-1.18512  	0.01925  	0.12160  	0.10691  	-3.02442  	0.01038  	-0.08584  	-100.79008  	-1.13953  	31.55208  	35.88868  	-19865.92259  	-4203.11150  	0.00417  	0.00002  	0.00403  	0.00437  	0.00454  	0.00000  	0.00000  
17.75273  	33.30552  	5.06279  	5.29342  	25.36048  	-1.18512  	0.01813  	0.12020  	0.11423  	-3.02442  	0.01713  	-0.08577  	-100.75399  	-1.14334  	33.71417  	35.47697  	-19867.24882  	-4203.08441  	0.00418  	0.00002  	0.00405  	0.00435  	0.00453  	0.00000  	0.00000  
18.75503  	33.30377  	5.06304  	5.29320  	25.36540  	-1.18512  	0.01820  	0.11984  	0.11038  	-3.02442  	0.01529  	-0.08581  	-100.66936  	-1.14097  	32.57684  	35.37062  	-19867.93980  	-4203.08664  	0.00418  	0.00002  	0.00405  	0.00435  	0.00453  	0.00000  	0.00000  
19.75627  	33.30755  	5.06330  	5.29257  	25.36875  	-1.18512  	0.01994  	0.11796  	0.10919  	-3.02442  	0.01757  	-0.08574  	-100.67487  	-1.13657  	32.22593  	34.81489  	-19869.48960  	-4203.06467  	0.00417  	0.00003  	0.00406  	0.00438  	0.00452  	0.00000  	0.00000  
20.75579  	33.30966  	5.06313  	5.29217  	25.37097  	-1.18512  	0.02103  	0.11804  	0.11285  	-3.02442  	0.01753  	-0.08575  	-100.67334  	-1.13542  	33.30514  	34.83749  	-19870.43022  	-4203.02985  	0.00418  	0.00002  	0.00406  	0.00440  	0.00452  	0.00000  	0.00000  
21.75602  	33.30793  	5.06249  	5.29194  	25.37173  	-1.18512  	0.01845  	0.11647  	0.10509  	-3.02442  	0.01467  	-0.08576  	-100.64186  	-1.13746  	31.01710  	34.37347  	-19870.21808  	-4202.97800  	0.00417  	0.00002  	0.00405  	0.00435  	0.00451  	0.00000  	0.00000  
22.75568  	33.31015  	5.06279  	5.29218  	25.37153  	-1.18512  	0.01840  	0.11784  	0.10941  	-3.02442  	0.01311  	-0.08568  	-100.67261  	-1.13717  	32.29205  	34.78018  	-19870.65950  	-4203.01040  	0.00418  	0.00003  	0.00404  	0.00435  	0.00452  	0.00000  	0.00000  
23.75610  	33.31587  	5.06274  	5.29229  	25.37146  	-1.18512  	0.01878  	0.11400  	0.10724  	-3.02442  	0.01300  	-0.08570  	-100.74603  	-1.13797  	31.64986  	33.64583  	-19871.88735  	-4203.01405  	0.00417  	0.00003  	0.00404  	0.00436  	0.00450  	0.00000  	0.00000  
24.75668  	33.31021  	5.06245  	5.29194  	25.36899  	-1.18512  	0.01699  	0.11710  	0.10809  	-3.02442  	0.01510  	-0.08572  	-100.70560  	-1.13770  	31.90258  	34.56108  	-19870.11938  	-4202.97565  	0.00417  	0.00003  	0.00405  	0.00433  	0.00451  	0.00000  	0.00000  
25.75723  	33.30982  	5.06211  	5.29230  	25.36678  	-1.18512  	0.01608  	0.11293  	0.10830  	-3.02442  	0.01426  	-0.08575  	-100.72855  	-1.14117  	31.96387  	33.33027  	-19869.55417  	-4202.97669  	0.00417  	0.00002  	0.00405  	0.00431  	0.00450  	0.00000  	0.00000  
26.75917  	33.31018  	5.06300  	5.29274  	25.36305  	-1.18512  	0.01884  	0.11380  	0.09917  	-3.02442  	0.01409  	-0.08571  	-100.78044  	-1.13890  	29.26850  	33.58547  	-19868.82039  	-4203.05636  	0.00416  	0.00003  	0.00405  	0.00436  	0.00450  	0.00000  	0.00000  
27.75911  	33.30911  	5.06279  	5.29127  	25.35839  	-1.18512  	0.01836  	0.11260  	0.09845  	-3.02442  	0.01472  	-0.08579  	-100.82598  	-1.13266  	29.05735  	33.23208  	-19867.57659  	-4202.95542  	0.00416  	0.00002  	0.00405  	0.00435  	0.00449  	0.00000  	0.00000  
28.76113  	33.30909  	5.06263  	5.29052  	25.35281  	-1.18512  	0.01929  	0.11068  	0.10240  	-3.02442  	0.01380  	-0.08573  	-100.89654  	-1.12976  	30.22218  	32.66494  	-19866.35660  	-4202.90167  	0.00416  	0.00003  	0.00404  	0.00437  	0.00449  	0.00000  	0.00000  
29.76229  	33.31190  	5.06267  	5.29019  	25.34724  	-1.18512  	0.01835  	0.11384  	0.10007  	-3.02442  	0.01508  	-0.08574  	-101.00286  	-1.12793  	29.53438  	33.59856  	-19865.75825  	-4202.88407  	0.00416  	0.00002  	0.00405  	0.00435  	0.00450  	0.00000  	0.00000  
30.76212  	33.31483  	5.06135  	5.29061  	25.33995  	-1.18512  	0.01764  	0.11226  	0.10467  	-3.02442  	0.01468  	-0.08566  	-101.13243  	-1.13655  	30.89208  	33.13133  	-19864.80872  	-4202.82964  	0.00417  	0.00003  	0.00405  	0.00434  	0.00449  	0.00000  	0.00000  
31.76246  	33.31450  	5.06214  	5.28939  	25.33282  	-1.18512  	0.01733  	0.11688  	0.10295  	-3.02442  	0.01312  	-0.08575  	-101.21874  	-1.12658  	30.38491  	34.49707  	-19863.18766  	-4202.80387  	0.00416  	0.00002  	0.00404  	0.00433  	0.00451  	0.00000  	0.00000  
32.76366  	33.31439  	5.06113  	5.28963  	25.32606  	-1.18512  	0.01909  	0.11404  	0.10401  	-3.02442  	0.01174  	-0.08581  	-101.30303  	-1.13278  	30.69845  	33.65736  	-19861.69389  	-4202.75809  	0.00417  	0.00002  	0.00404  	0.00437  	0.00450  	0.00000  	0.00000  
33.76432  	33.31239  	5.06106  	5.28868  	25.32097  	-1.18512  	0.01577  	0.11935  	0.10327  	-3.02442  	0.01654  	-0.08580  	-101.34232  	-1.12842  	30.47871  	35.22599  	-19860.15423  	-4202.69662  	0.00417  	0.00002  	0.00405  	0.00430  	0.00453  	0.00000  	0.00000  
34.76388  	33.31280  	5.06132  	5.28878  	25.31713  	-1.18512  	0.01893  	0.11593  	0.11173  	-3.02442  	0.01322  	-0.08570  	-101.39620  	-1.12761  	32.97581  	34.21406  	-19859.40636  	-4202.71830  	0.00418  	0.00003  	0.00404  	0.00436  	0.00451  	0.00000  	0.00000  
35.76597  	33.31789  	5.05981  	5.28765  	25.31547  	-1.18512  	0.01629  	0.12007  	0.11008  	-3.02442  	0.01586  	-0.08573  	-101.48184  	-1.12948  	32.48892  	35.43729  	-19860.15225  	-4202.56048  	0.00418  	0.00003  	0.00405  	0.00431  	0.00453  	0.00000  	0.00000  
36.76536  	33.31841  	5.06043  	5.28797  	25.31426  	-1.18512  	0.01901  	0.12032  	0.10898  	-3.02442  	0.01276  	-0.08578  	-101.50371  	-1.12800  	32.16482  	35.51055  	-19860.00388  	-4202.61630  	0.00417  	0.00002  	0.00404  	0.00436  	0.00453  	0.00000  	0.00000  
37.76631  	33.31765  	5.06002  	5.28822  	25.31522  	-1.18512  	0.01890  	0.12215  	0.11778  	-3.02442  	0.01440  	-0.08572  	-101.48191  	-1.13128  	34.76280  	36.05172  	-19860.04697  	-4202.60684  	0.00419  	0.00003  	0.00405  	0.00436  	0.00454  	0.00000  	0.00000  
38.76551  	33.31648  	5.05902  	5.28832  	25.31764  	-1.18512  	0.01923  	0.12224  	0.10893  	-3.02442  	0.01380  	-0.08580  	-101.43637  	-1.13674  	32.15078  	36.07639  	-19860.31840  	-4202.55323  	0.00417  	0.00002  	0.00404  	0.00437  	0.00454  	0.00000  	0.00000  
39.76599  	33.31879  	5.06033  	5.28899  	25.32164  	-1.18512  	0.01880  	0.12065  	0.12314  	-3.02442  	0.01564  	-0.08580  	-101.41496  	-1.13355  	36.34462  	35.60882  	-19861.69084  	-4202.67185  	0.00420  	0.00002  	0.00405  	0.00436  	0.00453  	0.00000  	0.00000  
40.76736  	33.31885  	5.05973  	5.28819  	25.32660  	-1.18512  	0.01990  	0.12256  	0.10691  	-3.02442  	0.01565  	-0.08585  	-101.35289  	-1.13255  	31.55246  	36.17203  	-19862.78238  	-4202.58779  	0.00417  	0.00002  	0.00405  	0.00438  	0.00454  	0.00000  	0.00000  
41.76856  	33.32140  	5.05976  	5.28745  	25.33206  	-1.18512  	0.01848  	0.12274  	0.11324  	-3.02442  	0.01576  	-0.08575  	-101.31596  	-1.12874  	33.42151  	36.22618  	-19864.52394  	-4202.54597  	0.00418  	0.00002  	0.00405  	0.00435  	0.00454  	0.00000  	0.00000  
42.77006  	33.32151  	5.05979  	5.28777  	25.33860  	-1.18512  	0.01749  	0.12410  	0.11425  	-3.02442  	0.01468  	-0.08573  	-101.23441  	-1.13017  	33.71965  	36.62770  	-19865.96832  	-4202.56632  	0.00418  	0.00003  	0.00405  	0.00434  	0.00455  	0.00000  	0.00000  
43.77100  	33.31971  	5.06007  	5.28797  	25.34593  	-1.18512  	0.01837  	0.12276  	0.11101  	-3.02442  	0.01329  	-0.08581  	-101.11854  	-1.12982  	32.76255  	36.23213  	-19867.17133  	-4202.59526  	0.00418  	0.00002  	0.00404  	0.00435  	0.00454  	0.00000  	0.00000  
44.77100  	33.32418  	5.06102  	5.28825  	25.35455  	-1.18512  	0.01751  	0.12269  	0.11414  	-3.02442  	0.01371  	-0.08575  	-101.06590  	-1.12648  	33.68837  	36.20990  	-19870.01581  	-4202.66861  	0.00418  	0.00002  	0.00404  	0.00434  	0.00454  	0.00000  	0.00000  
45.77109  	33.32614  	5.06024  	5.28812  	25.36219  	-1.18512  	0.01911  	0.12258  	0.11315  	-3.02442  	0.01451  	-0.08575  	-100.99391  	-1.12972  	33.39588  	36.17683  	-19872.10346  	-4202.61410  	0.00418  	0.00002  	0.00405  	0.00437  	0.00454  	0.00000  	0.00000  
46.77229  	33.32232  	5.06017  	5.28919  	25.36834  	-1.18512  	0.01843  	0.12177  	0.11285  	-3.02442  	0.01339  	-0.08581  	-100.86748  	-1.13538  	33.30673  	35.93813  	-19872.61302  	-4202.67417  	0.00418  	0.00002  	0.00404  	0.00435  	0.00454  	0.00000  	0.00000  
47.77228  	33.32455  	5.05976  	5.29043  	25.37665  	-1.18512  	0.01961  	0.12144  	0.10813  	-3.02442  	0.01754  	-0.08588  	-100.79032  	-1.14357  	31.91194  	35.84271  	-19874.90270  	-4202.72399  	0.00417  	0.00002  	0.00406  	0.00438  	0.00453  	0.00000  	0.00000  
48.77309  	33.32923  	5.05874  	5.28974  	25.38346  	-1.18512  	0.01969  	0.12037  	0.11276  	-3.02442  	0.01054  	-0.08578  	-100.76327  	-1.14516  	33.28002  	35.52549  	-19877.40133  	-4202.62101  	0.00418  	0.00002  	0.00403  	0.00438  	0.00453  	0.00000  	0.00000  
49.77262  	33.33050  	5.05984  	5.28966  	25.38888  	-1.18512  	0.01948  	0.12177  	0.11031  	-3.02442  	0.01737  	-0.08572  	-100.71070  	-1.13929  	32.55755  	35.93828  	-19878.85611  	-4202.68297  	0.00418  	0.00003  	0.00406  	0.00437  	0.00454  	0.00000  	0.00000  
50.77254  	33.32888  	5.05985  	5.28832  	25.39344  	-1.18512  	0.01894  	0.11836  	0.10595  	-3.02442  	0.01056  	-0.08582  	-100.63242  	-1.13260  	31.27048  	34.93198  	-19879.49462  	-4202.60276  	0.00417  	0.00002  	0.00403  	0.00436  	0.00452  	0.00000  	0.00000  
51.77295  	33.33040  	5.06051  	5.29006  	25.39686  	-1.18512  	0.01732  	0.11990  	0.10953  	-3.02442  	0.01250  	-0.08573  	-100.60825  	-1.13800  	32.32780  	35.38740  	-19880.57055  	-4202.74687  	0.00418  	0.00003  	0.00404  	0.00433  	0.00453  	0.00000  	0.00000  
52.77342  	33.33005  	5.06025  	5.28999  	25.39884  	-1.18512  	0.01800  	0.11814  	0.10558  	-3.02442  	0.01552  	-0.08571  	-100.57870  	-1.13890  	31.16064  	34.86907  	-19880.92359  	-4202.72716  	0.00417  	0.00003  	0.00405  	0.00435  	0.00452  	0.00000  	0.00000  
53.77401  	33.33133  	5.06060  	5.28973  	25.40089  	-1.18512  	0.01621  	0.11871  	0.11358  	-3.02442  	0.01401  	-0.08574  	-100.56900  	-1.13589  	33.52115  	35.03642  	-19881.64805  	-4202.73188  	0.00418  	0.00003  	0.00404  	0.00431  	0.00452  	0.00000  	0.00000  
54.77366  	33.33344  	5.05958  	5.29013  	25.40136  	-1.18512  	0.01853  	0.11825  	0.10293  	-3.02442  	0.01285  	-0.08583  	-100.58977  	-1.14295  	30.37731  	34.89918  	-19882.21041  	-4202.69549  	0.00416  	0.00002  	0.00404  	0.00436  	0.00452  	0.00000  	0.00000  
55.77348  	33.33219  	5.06016  	5.28974  	25.40152  	-1.18512  	0.01894  	0.11755  	0.10442  	-3.02442  	0.01468  	-0.08578  	-100.57180  	-1.13810  	30.81712  	34.69212  	-19881.97175  	-4202.70684  	0.00417  	0.00002  	0.00405  	0.00436  	0.00452  	0.00000  	0.00000  
56.77364  	33.33065  	5.06058  	5.29006  	25.39888  	-1.18512  	0.02017  	0.11783  	0.10367  	-3.02442  	0.01469  	-0.08570  	-100.58586  	-1.13759  	30.59620  	34.77584  	-19881.06329  	-4202.75100  	0.00417  	0.00003  	0.00405  	0.00439  	0.00452  	0.00000  	0.00000  
57.77464  	33.33333  	5.06053  	5.29119  	25.39755  	-1.18512  	0.01983  	0.11332  	0.10660  	-3.02442  	0.01428  	-0.08582  	-100.63668  	-1.14347  	31.46191  	33.44572  	-19881.35666  	-4202.81590  	0.00417  	0.00002  	0.00405  	0.00438  	0.00450  	0.00000  	0.00000  
58.77547  	33.33437  	5.06036  	5.29102  	25.39447  	-1.18512  	0.01774  	0.11424  	0.10108  	-3.02442  	0.01594  	-0.08571  	-100.68885  	-1.14347  	29.83301  	33.71523  	-19880.91240  	-4202.79484  	0.00416  	0.00003  	0.00405  	0.00434  	0.00450  	0.00000  	0.00000  
59.77862  	33.33264  	5.06074  	5.29115  	25.39053  	-1.18512  	0.01677  	0.11176  	0.10343  	-3.02442  	0.01601  	-0.08577  	-100.71688  	-1.14223  	30.52485  	32.98491  	-19879.67901  	-4202.82547  	0.00417  	0.00002  	0.00405  	0.00432  	0.00449  	0.00000  	0.00000  
60.77898  	33.33159  	5.06100  	5.29078  	25.38432  	-1.18512  	0.01902  	0.11089  	0.10375  	-3.02442  	0.01527  	-0.08577  	-100.78227  	-1.13912  	30.62085  	32.72703  	-19878.10269  	-4202.81926  	0.00417  	0.00002  	0.00405  	0.00437  	0.00449  	0.00000  	0.00000  
61.77899  	33.33097  	5.06091  	5.29112  	25.37879  	-1.18512  	0.01798  	0.11322  	0.09823  	-3.02442  	0.01349  	-0.08578  	-100.84462  	-1.14122  	28.99229  	33.41669  	-19876.76511  	-4202.83395  	0.00416  	0.00002  	0.00404  	0.00435  	0.00450  	0.00000  	0.00000  
62.77899  	33.33135  	5.06071  	5.29036  	25.37111  	-1.18512  	0.01877  	0.11125  	0.09826  	-3.02442  	0.01407  	-0.08578  	-100.94688  	-1.13847  	29.00138  	32.83341  	-19875.17641  	-4202.77673  	0.00416  	0.00002  	0.00405  	0.00436  	0.00449  	0.00000  	0.00000  
63.78113  	33.33197  	5.06144  	5.29074  	25.36357  	-1.18512  	0.01600  	0.11540  	0.09815  	-3.02442  	0.01498  	-0.08578  	-101.05024  	-1.13674  	28.96659  	34.05853  	-19873.67276  	-4202.84351  	0.00416  	0.00002  	0.00405  	0.00431  	0.00451  	0.00000  	0.00000  
64.78213  	33.32874  	5.06152  	5.29054  	25.35414  	-1.18512  	0.01998  	0.11311  	0.10525  	-3.02442  	0.01297  	-0.08573  	-101.12896  	-1.13537  	31.06480  	33.38436  	-19870.92039  	-4202.83626  	0.00417  	0.00003  	0.00404  	0.00438  	0.00450  	0.00000  	0.00000  
65.78306  	33.32805  	5.06053  	5.29080  	25.34720  	-1.18512  	0.01710  	0.11507  	0.10460  	-3.02442  	0.01546  	-0.08580  	-101.20826  	-1.14158  	30.87095  	33.96075  	-19869.26096  	-4202.79241  	0.00417  	0.00002  	0.00405  	0.00433  	0.00451  	0.00000  	0.00000  
66.78400  	33.33081  	5.06103  	5.29042  	25.34058  	-1.18512  	0.01955  	0.11707  	0.10682  	-3.02442  	0.01389  	-0.08570  	-101.32714  	-1.13718  	31.52784  	34.55115  	-19868.42274  	-4202.79973  	0.00417  	0.00003  	0.00404  	0.00438  	0.00451  	0.00000  	0.00000  
67.78595  	33.33250  	5.06152  	5.29134  	25.33493  	-1.18512  	0.01721  	0.11766  	0.11111  	-3.02442  	0.01521  	-0.08565  	-101.42025  	-1.13931  	32.79390  	34.72507  	-19867.55941  	-4202.88377  	0.00418  	0.00003  	0.00405  	0.00433  	0.00452  	0.00000  	0.00000  
68.78713  	33.33109  	5.06132  	5.29079  	25.33095  	-1.18512  	0.01949  	0.11929  	0.10548  	-3.02442  	0.01383  	-0.08569  	-101.45277  	-1.13758  	31.13267  	35.20780  	-19866.38722  	-4202.83908  	0.00417  	0.00003  	0.00404  	0.00437  	0.00452  	0.00000  	0.00000  
69.78788  	33.33432  	5.06137  	5.29103  	25.32967  	-1.18512  	0.01935  	0.11969  	0.11081  	-3.02442  	0.01513  	-0.08578  	-101.50986  	-1.13854  	32.70338  	35.32594  	-19866.81216  	-4202.85645  	0.00418  	0.00002  	0.00405  	0.00437  	0.00453  	0.00000  	0.00000  
70.78813  	33.33261  	5.06195  	5.29128  	25.32937  	-1.18512  	0.02173  	0.12039  	0.09991  	-3.02442  	0.01665  	-0.08584  	-101.49208  	-1.13688  	29.48726  	35.53152  	-19866.37501  	-4202.90613  	0.00416  	0.00002  	0.00405  	0.00442  	0.00453  	0.00000  	0.00000  
71.78736  	33.33210  	5.06138  	5.29145  	25.33097  	-1.18512  	0.01780  	0.12053  	0.11569  	-3.02442  	0.01186  	-0.08581  	-101.46527  	-1.14053  	34.14414  	35.57299  	-19866.61287  	-4202.88219  	0.00419  	0.00002  	0.00404  	0.00434  	0.00453  	0.00000  	0.00000  
72.78797  	33.33032  	5.06141  	5.29163  	25.33342  	-1.18512  	0.01848  	0.12214  	0.11039  	-3.02442  	0.01394  	-0.08577  	-101.41159  	-1.14126  	32.58006  	36.04938  	-19866.75763  	-4202.89487  	0.00418  	0.00002  	0.00404  	0.00435  	0.00454  	0.00000  	0.00000  
73.78805  	33.33310  	5.06092  	5.29211  	25.33646  	-1.18512  	0.01883  	0.12133  	0.11445  	-3.02442  	0.01045  	-0.08573  	-101.40830  	-1.14612  	33.77764  	35.80870  	-19868.02332  	-4202.89420  	0.00418  	0.00003  	0.00403  	0.00436  	0.00453  	0.00000  	0.00000  
74.78834  	33.33373  	5.06092  	5.29214  	25.34165  	-1.18512  	0.01898  	0.12265  	0.11495  	-3.02442  	0.01352  	-0.08577  	-101.35059  	-1.14628  	33.92746  	36.19999  	-19869.28862  	-4202.89591  	0.00418  	0.00002  	0.00404  	0.00436  	0.00454  	0.00000  	0.00000  
75.78995  	33.33213  	5.06187  	5.29086  	25.34896  	-1.18512  	0.02081  	0.12396  	0.11507  	-3.02442  	0.01390  	-0.08579  	-101.23763  	-1.13524  	33.96306  	36.58476  	-19870.52978  	-4202.87613  	0.00418  	0.00002  	0.00404  	0.00440  	0.00455  	0.00000  	0.00000  
76.79053  	33.33567  	5.06199  	5.29162  	25.35515  	-1.18512  	0.02000  	0.12543  	0.11077  	-3.02442  	0.01573  	-0.08580  	-101.20400  	-1.13835  	32.69380  	37.01949  	-19872.64671  	-4202.92857  	0.00418  	0.00002  	0.00405  	0.00438  	0.00455  	0.00000  	0.00000  
77.79123  	33.32970  	5.06113  	5.29133  	25.36208  	-1.18512  	0.01858  	0.12288  	0.11331  	-3.02442  	0.01350  	-0.08575  	-101.04032  	-1.14122  	33.44271  	36.26745  	-19872.85381  	-4202.86003  	0.00418  	0.00002  	0.00404  	0.00436  	0.00454  	0.00000  	0.00000  
78.79091  	33.33212  	5.06071  	5.29172  	25.36954  	-1.18512  	0.01878  	0.12409  	0.11301  	-3.02442  	0.01352  	-0.08574  	-100.97642  	-1.14519  	33.35302  	36.62523  	-19875.00246  	-4202.85806  	0.00418  	0.00003  	0.00404  	0.00436  	0.00455  	0.00000  	0.00000  
79.79199  	33.33107  	5.06324  	5.29189  	25.37838  	-1.18512  	0.02016  	0.12176  	0.11133  	-3.02442  	0.01773  	-0.08582  	-100.85100  	-1.13349  	32.85698  	35.93488  	-19876.69589  	-4203.01985  	0.00418  	0.00002  	0.00406  	0.00439  	0.00454  	0.00000  	0.00000  
80.79196  	33.33761  	5.06297  	5.29192  	25.38639  	-1.18512  	0.01956  	0.12201  	0.11466  	-3.02442  	0.01175  	-0.08580  	-100.83228  	-1.13499  	33.84019  	36.00916  	-19879.86099  	-4203.00585  	0.00418  	0.00002  	0.00404  	0.00438  	0.00454  	0.00000  	0.00000  
81.79332  	33.33787  	5.06252  	5.29210  	25.39197  	-1.18512  	0.01890  	0.12044  	0.10722  	-3.02442  	0.01511  	-0.08579  	-100.76488  	-1.13814  	31.64348  	35.54560  	-19881.13190  	-4202.98967  	0.00417  	0.00002  	0.00405  	0.00436  	0.00453  	0.00000  	0.00000  
82.79356  	33.33691  	5.06344  	5.29218  	25.39785  	-1.18512  	0.01823  	0.12048  	0.10748  	-3.02442  	0.01059  	-0.08580  	-100.67816  	-1.13397  	31.72031  	35.55898  	-19882.20114  	-4203.04908  	0.00417  	0.00002  	0.00403  	0.00435  	0.00453  	0.00000  	0.00000  
83.79492  	33.33800  	5.06383  	5.29171  	25.40388  	-1.18512  	0.01838  	0.12073  	0.10490  	-3.02442  	0.01459  	-0.08576  	-100.61550  	-1.12967  	30.95939  	35.63222  	-19883.74821  	-4203.04461  	0.00417  	0.00002  	0.00405  	0.00435  	0.00453  	0.00000  	0.00000  
84.79500  	33.33677  	5.06295  	5.29195  	25.40879  	-1.18512  	0.01799  	0.11920  	0.11311  	-3.02442  	0.01343  	-0.08583  	-100.53766  	-1.13524  	33.38271  	35.17986  	-19884.54864  	-4203.00617  	0.00418  	0.00002  	0.00404  	0.00435  	0.00452  	0.00000  	0.00000  
85.79484  	33.33478  	5.06290  	5.29150  	25.41206  	-1.18512  	0.01777  	0.11826  	0.10633  	-3.02442  	0.01649  	-0.08557  	-100.47104  	-1.13328  	31.38223  	34.90321  	-19884.82824  	-4202.97627  	0.00417  	0.00003  	0.00405  	0.00434  	0.00452  	0.00000  	0.00000  
86.79520  	33.33899  	5.06316  	5.29144  	25.41389  	-1.18512  	0.01823  	0.11808  	0.10602  	-3.02442  	0.01537  	-0.08574  	-100.50105  	-1.13168  	31.28923  	34.85016  	-19886.14108  	-4202.98780  	0.00417  	0.00003  	0.00405  	0.00435  	0.00452  	0.00000  	0.00000  
87.79572  	33.34077  	5.06255  	5.29179  	25.41621  	-1.18512  	0.01856  	0.11682  	0.10638  	-3.02442  	0.01182  	-0.08572  	-100.49422  	-1.13640  	31.39548  	34.47898  	-19887.03244  	-4202.97263  	0.00417  	0.00003  	0.00404  	0.00436  	0.00451  	0.00000  	0.00000  
88.79602  	33.33889  	5.06280  	5.29186  	25.41660  	-1.18512  	0.01866  	0.11728  	0.10892  	-3.02442  	0.01623  	-0.08570  	-100.46542  	-1.13554  	32.14582  	34.61375  	-19886.70878  	-4202.99146  	0.00417  	0.00003  	0.00405  	0.00436  	0.00452  	0.00000  	0.00000  
89.79623  	33.34485  	5.06306  	5.29209  	25.41642  	-1.18512  	0.01881  	0.11601  	0.10734  	-3.02442  	0.01322  	-0.08576  	-100.54342  	-1.13540  	31.67915  	34.23924  	-19887.96627  	-4203.02127  	0.00417  	0.00002  	0.00404  	0.00436  	0.00451  	0.00000  	0.00000  
90.79714  	33.34299  	5.06241  	5.29249  	25.41517  	-1.18512  	0.01888  	0.11745  	0.10162  	-3.02442  	0.01509  	-0.08583  	-100.53566  	-1.14057  	29.99324  	34.66304  	-19887.28845  	-4203.00608  	0.00416  	0.00002  	0.00405  	0.00436  	0.00452  	0.00000  	0.00000  
91.79720  	33.34135  	5.06373  	5.29192  	25.41306  	-1.18512  	0.01868  	0.11252  	0.10561  	-3.02442  	0.01306  	-0.08569  	-100.54155  	-1.13124  	31.17039  	33.20925  	-19886.47229  	-4203.05060  	0.00417  	0.00003  	0.00404  	0.00436  	0.00449  	0.00000  	0.00000  
92.79645  	33.34199  	5.06326  	5.29142  	25.40899  	-1.18512  	0.02039  	0.11517  	0.09357  	-3.02442  	0.01359  	-0.08576  	-100.60124  	-1.13112  	27.61538  	33.99058  	-19885.72758  	-4202.99295  	0.00415  	0.00002  	0.00404  	0.00439  	0.00451  	0.00000  	0.00000  
93.79697  	33.34033  	5.06336  	5.29111  	25.40414  	-1.18512  	0.01802  	0.11153  	0.10930  	-3.02442  	0.01493  	-0.08577  	-100.64182  	-1.12904  	32.25831  	32.91769  	-19884.31341  	-4202.98056  	0.00417  	0.00002  	0.00405  	0.00435  	0.00449  	0.00000  	0.00000  
94.79734  	33.34388  	5.06256  	5.29144  	25.39953  	-1.18512  	0.01598  	0.11162  	0.10937  	-3.02442  	0.01538  	-0.08581  	-100.74527  	-1.13462  	32.27814  	32.94215  	-19884.08103  	-4202.95237  	0.00417  	0.00002  	0.00405  	0.00431  	0.00449  	0.00000  	0.00000  
95.79789  	33.34429  	5.06321  	5.29033  	25.39388  	-1.18512  	0.01807  	0.11114  	0.09399  	-3.02442  	0.01377  	-0.08583  	-100.82211  	-1.12591  	27.73897  	32.80180  	-19882.94203  	-4202.92453  	0.00415  	0.00002  	0.00404  	0.00435  	0.00449  	0.00000  	0.00000  
96.79756  	33.34668  	5.06236  	5.28986  	25.38652  	-1.18512  	0.01731  	0.11190  	0.10296  	-3.02442  	0.01258  	-0.08585  	-100.94576  	-1.12780  	30.38630  	33.02732  	-19881.86278  	-4202.84603  	0.00416  	0.00002  	0.00404  	0.00433  	0.00449  	0.00000  	0.00000  
97.79799  	33.34308  	5.06249  	5.28945  	25.37983  	-1.18512  	0.01907  	0.11263  	0.09788  	-3.02442  	0.01303  	-0.08580  	-100.98498  	-1.12514  	28.88828  	33.24125  	-19879.62449  	-4202.82880  	0.00416  	0.00002  	0.00404  	0.00437  	0.00449  	0.00000  	0.00000  
98.79833  	33.34555  	5.06161  	5.29026  	25.37194  	-1.18512  	0.01741  	0.11385  	0.10870  	-3.02442  	0.01345  	-0.08571  	-101.11637  	-1.13353  	32.08158  	33.60176  	-19878.44573  	-4202.82438  	0.00417  	0.00003  	0.00404  	0.00433  	0.00450  	0.00000  	0.00000  
99.79899  	33.34456  	5.06166  	5.28935  	25.36409  	-1.18512  	0.01849  	0.11509  	0.09807  	-3.02442  	0.01451  	-0.08584  	-101.20325  	-1.12876  	28.94346  	33.96712  	-19876.52269  	-4202.77357  	0.00416  	0.00002  	0.00405  	0.00436  	0.00451  	0.00000  	0.00000  
100.79851  	33.34497  	5.06264  	5.29107  	25.35770  	-1.18512  	0.01961  	0.11758  	0.10919  	-3.02442  	0.01300  	-0.08581  	-101.28950  	-1.13239  	32.22767  	34.70132  	-19875.22321  	-4202.93505  	0.00417  	0.00002  	0.00404  	0.00438  	0.00452  	0.00000  	0.00000  
101.79882  	33.34663  	5.06251  	5.29105  	25.35288  	-1.18512  	0.01813  	0.11839  	0.10432  	-3.02442  	0.01377  	-0.08574  	-101.37174  	-1.13293  	30.79032  	34.94242  	-19874.53552  	-4202.92602  	0.00417  	0.00003  	0.00404  	0.00435  	0.00452  	0.00000  	0.00000  
102.80040  	33.34432  	5.06259  	5.29163  	25.35018  	-1.18512  	0.01928  	0.11857  	0.10889  	-3.02442  	0.01462  	-0.08570  	-101.37664  	-1.13548  	32.13914  	34.99483  	-19873.44537  	-4202.96563  	0.00417  	0.00003  	0.00405  	0.00437  	0.00452  	0.00000  	0.00000  
103.80204  	33.34097  	5.06217  	5.29217  	25.34797  	-1.18512  	0.01807  	0.11992  	0.11071  	-3.02442  	0.01666  	-0.08567  	-101.36219  	-1.14022  	32.67483  	35.39250  	-19872.23615  	-4202.97261  	0.00418  	0.00003  	0.00405  	0.00435  	0.00453  	0.00000  	0.00000  
104.80360  	33.34404  	5.06223  	5.29112  	25.34785  	-1.18512  	0.01825  	0.11990  	0.11105  	-3.02442  	0.01405  	-0.08579  	-101.40264  	-1.13471  	32.77614  	35.38863  	-19872.87981  	-4202.91329  	0.00418  	0.00002  	0.00404  	0.00435  	0.00453  	0.00000  	0.00000  
105.80443  	33.34465  	5.06244  	5.29082  	25.34907  	-1.18512  	0.01835  	0.12112  	0.11050  	-3.02442  	0.01330  	-0.08571  	-101.39483  	-1.13218  	32.61255  	35.74841  	-19873.27619  	-4202.90755  	0.00418  	0.00003  	0.00404  	0.00435  	0.00453  	0.00000  	0.00000  
106.80578  	33.34710  	5.06188  	5.29277  	25.35214  	-1.18512  	0.01981  	0.12229  	0.11149  	-3.02442  	0.01887  	-0.08575  	-101.38704  	-1.14458  	32.90569  	36.09268  	-19874.47715  	-4202.99119  	0.00418  	0.00002  	0.00406  	0.00438  	0.00454  	0.00000  	0.00000  
107.80659  	33.34810  	5.06046  	5.29249  	25.35609  	-1.18512  	0.01931  	0.12199  	0.11162  	-3.02442  	0.01396  	-0.08576  	-101.34965  	-1.15025  	32.94376  	36.00335  	-19875.55234  	-4202.88955  	0.00418  	0.00002  	0.00404  	0.00437  	0.00454  	0.00000  	0.00000  
108.80834  	33.34973  	5.06274  	5.29284  	25.36165  	-1.18512  	0.01795  	0.12450  	0.11285  	-3.02442  	0.01734  	-0.08578  	-101.29977  	-1.14071  	33.30784  	36.74551  	-19877.11538  	-4203.04721  	0.00418  	0.00002  	0.00406  	0.00434  	0.00455  	0.00000  	0.00000  
109.81212  	33.35210  	5.06258  	5.29312  	25.36775  	-1.18512  	0.02128  	0.12536  	0.11348  	-3.02442  	0.01453  	-0.08574  	-101.25251  	-1.14288  	33.49280  	36.99764  	-19878.95860  	-4203.05414  	0.00418  	0.00002  	0.00405  	0.00441  	0.00455  	0.00000  	0.00000  
110.81344  	33.35284  	5.06188  	5.29389  	25.37415  	-1.18512  	0.02026  	0.12428  	0.11349  	-3.02442  	0.01566  	-0.08573  	-101.18063  	-1.15016  	33.49629  	36.67844  	-19880.51068  	-4203.05815  	0.00418  	0.00003  	0.00405  	0.00439  	0.00455  	0.00000  	0.00000  
111.81432  	33.35518  	5.06309  	5.29361  	25.38248  	-1.18512  	0.01994  	0.12389  	0.11904  	-3.02442  	0.01670  	-0.08575  	-101.10482  	-1.14274  	35.13228  	36.56528  	-19882.83130  	-4203.11399  	0.00419  	0.00002  	0.00405  	0.00438  	0.00455  	0.00000  	0.00000  
