10/23/2024 10:26:00Time	T_hot_in(C)	T_cold_in(C)	T_cold_out(C)	T_hot_out(C)	mdot_cold(kg/s)	ASFASIFUAS(kg/s)	Diferencial_cold(bar)	Diferencial_hot(bar)	mdot_hot(kg/s)	ABS_cold(bar)	ABS_hot(bar)	q_cold(kW)	q_hot(kW)	ASFASYFY	Tau_cold_haste	Re_hot	Re_cold	U_global	PSIG_cold(bar)	R_fouling	PSIG_hot(bar)	PSID_hot(bar)	m_dot_hot	PSID_cold(bar)	m_dot_cold
1.74439  	0.00000  	0.00000  	0.00000  	0.00000  	-1.18512  	-0.20833  	-0.86278  	-2.50000  	-3.02442  	-1.25000  	-0.08628  	-0.00000  	-0.00000  	-737.84722  	-254.63905  	-9234.48090  	-3618.55272  	0.00000  	0.00000  	0.00000  	0.00000  	0.00000  	0.00000  	0.00000  
2.74571  	23.00136  	5.06885  	5.31341  	15.67331  	-1.18512  	0.01936  	0.37151  	0.36198  	-3.02442  	0.07239  	-0.08567  	-92.92910  	-1.21246  	106.83326  	109.64630  	-15707.28633  	-4204.64580  	0.00458  	0.00003  	0.00423  	0.00437  	0.00569  	0.00000  	0.00000  
3.74802  	23.00043  	5.06858  	5.31384  	15.67484  	-1.18512  	0.01898  	0.37095  	0.35881  	-3.02442  	0.07048  	-0.08568  	-92.89806  	-1.21590  	105.89774  	109.48091  	-15707.40581  	-4204.65486  	0.00457  	0.00003  	0.00423  	0.00436  	0.00568  	0.00000  	0.00000  
4.75037  	23.00115  	5.06874  	5.31371  	15.67717  	-1.18512  	0.01886  	0.37159  	0.35318  	-3.02442  	0.07301  	-0.08565  	-92.87750  	-1.21449  	104.23665  	109.67097  	-15708.00768  	-4204.65685  	0.00457  	0.00003  	0.00423  	0.00436  	0.00569  	0.00000  	0.00000  
5.75169  	22.99780  	5.06906  	5.31312  	15.67891  	-1.18512  	0.01735  	0.37144  	0.35466  	-3.02442  	0.07220  	-0.08569  	-92.81303  	-1.20994  	104.67307  	109.62683  	-15707.68882  	-4204.64090  	0.00457  	0.00003  	0.00423  	0.00433  	0.00569  	0.00000  	0.00000  
6.75503  	22.99573  	5.06931  	5.31377  	15.67974  	-1.18512  	0.01819  	0.36863  	0.35655  	-3.02442  	0.07166  	-0.08566  	-92.77608  	-1.21195  	105.23031  	108.79710  	-15707.44522  	-4204.69463  	0.00457  	0.00003  	0.00423  	0.00435  	0.00567  	0.00000  	0.00000  
7.75832  	22.99013  	5.06940  	5.31360  	15.68127  	-1.18512  	0.01908  	0.37051  	0.35227  	-3.02442  	0.07364  	-0.08572  	-92.68579  	-1.21068  	103.96914  	109.35267  	-15706.64294  	-4204.68993  	0.00456  	0.00003  	0.00424  	0.00437  	0.00568  	0.00000  	0.00000  
8.75968  	23.00304  	5.06885  	5.31320  	15.68337  	-1.18512  	0.01805  	0.36900  	0.35647  	-3.02442  	0.07399  	-0.08568  	-92.82297  	-1.21143  	105.20888  	108.90657  	-15709.59978  	-4204.63332  	0.00457  	0.00003  	0.00424  	0.00435  	0.00568  	0.00000  	0.00000  
9.76196  	23.00092  	5.06892  	5.31387  	15.68440  	-1.18512  	0.01712  	0.36853  	0.35587  	-3.02442  	0.07206  	-0.08567  	-92.78290  	-1.21437  	105.03056  	108.76873  	-15709.38433  	-4204.67761  	0.00457  	0.00003  	0.00423  	0.00433  	0.00567  	0.00000  	0.00000  
10.76531  	22.99960  	5.06797  	5.31346  	15.68522  	-1.18512  	0.01711  	0.36800  	0.35360  	-3.02442  	0.07479  	-0.08567  	-92.75587  	-1.21705  	104.36197  	108.61256  	-15709.28610  	-4204.59561  	0.00457  	0.00003  	0.00424  	0.00433  	0.00567  	0.00000  	0.00000  
11.76663  	23.00213  	5.06746  	5.31353  	15.68550  	-1.18512  	0.01857  	0.36684  	0.35363  	-3.02442  	0.07199  	-0.08569  	-92.78430  	-1.21991  	104.37126  	108.26853  	-15709.83926  	-4204.56962  	0.00457  	0.00003  	0.00423  	0.00436  	0.00567  	0.00000  	0.00000  
12.76995  	22.99607  	5.06724  	5.31309  	15.68754  	-1.18512  	0.01860  	0.36769  	0.35395  	-3.02442  	0.07177  	-0.08569  	-92.68167  	-1.21886  	104.46396  	108.52022  	-15709.04972  	-4204.52978  	0.00457  	0.00003  	0.00423  	0.00436  	0.00567  	0.00000  	0.00000  
13.77127  	22.99714  	5.06687  	5.31203  	15.68656  	-1.18512  	0.01856  	0.36712  	0.35358  	-3.02442  	0.07224  	-0.08573  	-92.70768  	-1.21544  	104.35607  	108.35236  	-15709.06485  	-4204.44441  	0.00457  	0.00003  	0.00423  	0.00436  	0.00567  	0.00000  	0.00000  
14.77259  	23.00357  	5.06661  	5.31156  	15.68679  	-1.18512  	0.01847  	0.36678  	0.35305  	-3.02442  	0.07270  	-0.08570  	-92.78626  	-1.21440  	104.20016  	108.25063  	-15710.37820  	-4204.40038  	0.00456  	0.00003  	0.00423  	0.00435  	0.00567  	0.00000  	0.00000  
15.77590  	23.00048  	5.06787  	5.31201  	15.68747  	-1.18512  	0.01793  	0.36519  	0.35169  	-3.02442  	0.07311  	-0.08571  	-92.73841  	-1.21033  	103.79631  	107.78275  	-15709.90345  	-4204.50291  	0.00456  	0.00003  	0.00423  	0.00434  	0.00566  	0.00000  	0.00000  
16.77925  	22.99645  	5.06648  	5.31141  	15.68729  	-1.18512  	0.01823  	0.36492  	0.35163  	-3.02442  	0.07203  	-0.08565  	-92.68965  	-1.21429  	103.77888  	107.70226  	-15709.07378  	-4204.38340  	0.00456  	0.00003  	0.00423  	0.00435  	0.00566  	0.00000  	0.00000  
17.78057  	22.99456  	5.06732  	5.31143  	15.68679  	-1.18512  	0.01891  	0.36569  	0.34996  	-3.02442  	0.07174  	-0.08566  	-92.67199  	-1.21022  	103.28729  	107.92850  	-15708.60295  	-4204.43525  	0.00456  	0.00003  	0.00423  	0.00436  	0.00566  	0.00000  	0.00000  
18.78389  	23.00475  	5.06763  	5.31144  	15.68567  	-1.18512  	0.01769  	0.36303  	0.35103  	-3.02442  	0.07265  	-0.08569  	-92.81549  	-1.20874  	103.60221  	107.14303  	-15710.38923  	-4204.45434  	0.00456  	0.00003  	0.00423  	0.00434  	0.00565  	0.00000  	0.00000  
19.78720  	23.00858  	5.06742  	5.31112  	15.68462  	-1.18512  	0.01774  	0.36331  	0.35023  	-3.02442  	0.07266  	-0.08567  	-92.87732  	-1.20823  	103.36668  	107.22623  	-15710.93569  	-4204.42266  	0.00456  	0.00003  	0.00423  	0.00434  	0.00565  	0.00000  	0.00000  
20.78852  	23.00671  	5.06798  	5.31302  	15.68314  	-1.18512  	0.01811  	0.36163  	0.34702  	-3.02442  	0.07300  	-0.08565  	-92.87228  	-1.21480  	102.41838  	106.73199  	-15710.27678  	-4204.56980  	0.00456  	0.00003  	0.00423  	0.00435  	0.00564  	0.00000  	0.00000  
21.79184  	23.00381  	5.06739  	5.31234  	15.68097  	-1.18512  	0.01794  	0.36151  	0.34283  	-3.02442  	0.07315  	-0.08571  	-92.86319  	-1.21436  	101.18315  	106.69531  	-15709.27833  	-4204.49422  	0.00455  	0.00003  	0.00423  	0.00434  	0.00564  	0.00000  	0.00000  
22.79518  	23.00088  	5.06747  	5.31243  	15.68019  	-1.18512  	0.01792  	0.36027  	0.34256  	-3.02442  	0.07182  	-0.08569  	-92.83594  	-1.21442  	101.10370  	106.32868  	-15708.54765  	-4204.50372  	0.00455  	0.00003  	0.00423  	0.00434  	0.00564  	0.00000  	0.00000  
23.79650  	23.00445  	5.06738  	5.31286  	15.67832  	-1.18512  	0.01762  	0.36125  	0.34885  	-3.02442  	0.07303  	-0.08564  	-92.90484  	-1.21702  	102.95866  	106.61865  	-15708.88303  	-4204.52434  	0.00456  	0.00003  	0.00423  	0.00434  	0.00564  	0.00000  	0.00000  
24.79782  	23.00053  	5.06807  	5.31239  	15.67502  	-1.18512  	0.01878  	0.36283  	0.34755  	-3.02442  	0.07245  	-0.08574  	-92.89693  	-1.21127  	102.57681  	107.08593  	-15707.46140  	-4204.53767  	0.00456  	0.00002  	0.00423  	0.00436  	0.00565  	0.00000  	0.00000  
25.80114  	22.99974  	5.06757  	5.31226  	15.67258  	-1.18512  	0.01841  	0.36517  	0.35176  	-3.02442  	0.07261  	-0.08568  	-92.91800  	-1.21310  	103.81820  	107.77497  	-15706.82486  	-4204.49987  	0.00456  	0.00003  	0.00423  	0.00435  	0.00566  	0.00000  	0.00000  
26.80346  	22.99303  	5.06842  	5.31259  	15.67072  	-1.18512  	0.01865  	0.36774  	0.35351  	-3.02442  	0.07289  	-0.08567  	-92.85632  	-1.21051  	104.33462  	108.53441  	-15705.13788  	-4204.57011  	0.00457  	0.00003  	0.00423  	0.00436  	0.00567  	0.00000  	0.00000  
27.80478  	22.99543  	5.06830  	5.31266  	15.67037  	-1.18512  	0.01908  	0.36736  	0.35206  	-3.02442  	0.07188  	-0.08568  	-92.89123  	-1.21143  	103.90591  	108.42288  	-15705.54167  	-4204.56751  	0.00456  	0.00003  	0.00423  	0.00437  	0.00567  	0.00000  	0.00000  
28.80710  	22.99932  	5.06825  	5.31138  	15.66955  	-1.18512  	0.01976  	0.36790  	0.35230  	-3.02442  	0.07275  	-0.08569  	-92.95103  	-1.20537  	103.97800  	108.58119  	-15706.14553  	-4204.48825  	0.00456  	0.00003  	0.00423  	0.00438  	0.00567  	0.00000  	0.00000  
29.81042  	22.99506  	5.06843  	5.31121  	15.66857  	-1.18512  	0.01837  	0.36881  	0.35437  	-3.02442  	0.07385  	-0.08570  	-92.90947  	-1.20363  	104.58693  	108.84881  	-15705.11248  	-4204.48832  	0.00457  	0.00003  	0.00424  	0.00435  	0.00567  	0.00000  	0.00000  
30.81125  	22.99317  	5.06838  	5.31154  	15.66882  	-1.18512  	0.01877  	0.36960  	0.35427  	-3.02442  	0.07204  	-0.08571  	-92.88225  	-1.20549  	104.55967  	109.08297  	-15704.79122  	-4204.50531  	0.00457  	0.00003  	0.00423  	0.00436  	0.00568  	0.00000  	0.00000  
31.81255  	22.99300  	5.06694  	5.31053  	15.66851  	-1.18512  	0.01795  	0.37060  	0.35662  	-3.02442  	0.07354  	-0.08572  	-92.88402  	-1.20764  	105.25116  	109.37711  	-15704.69545  	-4204.35808  	0.00457  	0.00003  	0.00424  	0.00434  	0.00568  	0.00000  	0.00000  
32.81589  	22.99526  	5.06666  	5.31057  	15.66989  	-1.18512  	0.01825  	0.36986  	0.35612  	-3.02442  	0.07247  	-0.08568  	-92.89533  	-1.20920  	105.10398  	109.16082  	-15705.41268  	-4204.34409  	0.00457  	0.00003  	0.00423  	0.00435  	0.00568  	0.00000  	0.00000  
33.81921  	22.99633  	5.06680  	5.30991  	15.66970  	-1.18512  	0.01731  	0.37077  	0.35660  	-3.02442  	0.07297  	-0.08563  	-92.91117  	-1.20524  	105.24597  	109.42815  	-15705.58605  	-4204.31310  	0.00457  	0.00003  	0.00423  	0.00433  	0.00568  	0.00000  	0.00000  
34.81953  	23.00062  	5.06702  	5.31005  	15.67120  	-1.18512  	0.01893  	0.37186  	0.35655  	-3.02442  	0.07270  	-0.08576  	-92.94655  	-1.20488  	105.23056  	109.74897  	-15706.72683  	-4204.33456  	0.00457  	0.00002  	0.00423  	0.00436  	0.00569  	0.00000  	0.00000  
35.82185  	23.00082  	5.06675  	5.31062  	15.67207  	-1.18512  	0.01715  	0.37065  	0.35797  	-3.02442  	0.07080  	-0.08562  	-92.93813  	-1.20903  	105.65156  	109.39338  	-15706.93596  	-4204.35293  	0.00457  	0.00003  	0.00423  	0.00433  	0.00568  	0.00000  	0.00000  
36.82516  	22.99443  	5.06707  	5.31092  	15.67363  	-1.18512  	0.01829  	0.37200  	0.35780  	-3.02442  	0.07315  	-0.08575  	-92.83734  	-1.20893  	105.59984  	109.79041  	-15705.98503  	-4204.38997  	0.00457  	0.00002  	0.00423  	0.00435  	0.00569  	0.00000  	0.00000  
37.82849  	22.99053  	5.06706  	5.31110  	15.67492  	-1.18512  	0.01777  	0.37107  	0.35639  	-3.02442  	0.07304  	-0.08570  	-92.77143  	-1.20984  	105.18386  	109.51590  	-15705.47278  	-4204.39991  	0.00457  	0.00003  	0.00423  	0.00434  	0.00568  	0.00000  	0.00000  
38.82981  	22.99855  	5.06671  	5.31161  	15.67556  	-1.18512  	0.01774  	0.37015  	0.35639  	-3.02442  	0.07453  	-0.08569  	-92.86505  	-1.21411  	105.18459  	109.24426  	-15707.17793  	-4204.40951  	0.00457  	0.00003  	0.00424  	0.00434  	0.00568  	0.00000  	0.00000  
39.83312  	22.99886  	5.06654  	5.31165  	15.67820  	-1.18512  	0.01858  	0.37014  	0.35381  	-3.02442  	0.07277  	-0.08566  	-92.83550  	-1.21522  	104.42260  	109.24304  	-15707.75687  	-4204.40165  	0.00457  	0.00003  	0.00423  	0.00436  	0.00568  	0.00000  	0.00000  
40.83641  	22.99649  	5.06717  	5.31275  	15.67864  	-1.18512  	0.01755  	0.36974  	0.35819  	-3.02442  	0.07151  	-0.08568  	-92.79983  	-1.21749  	105.71653  	109.12416  	-15707.37783  	-4204.50530  	0.00457  	0.00003  	0.00423  	0.00434  	0.00568  	0.00000  	0.00000  
41.83776  	22.99764  	5.06751  	5.31214  	15.67952  	-1.18512  	0.01772  	0.36895  	0.35471  	-3.02442  	0.07268  	-0.08568  	-92.80326  	-1.21283  	104.68746  	108.89069  	-15707.77869  	-4204.48925  	0.00457  	0.00003  	0.00423  	0.00434  	0.00568  	0.00000  	0.00000  
42.84010  	22.99805  	5.06767  	5.31185  	15.67959  	-1.18512  	0.01825  	0.36876  	0.35357  	-3.02442  	0.07261  	-0.08573  	-92.80759  	-1.21057  	104.35256  	108.83572  	-15707.87309  	-4204.48102  	0.00457  	0.00003  	0.00423  	0.00435  	0.00567  	0.00000  	0.00000  
43.84241  	23.00301  	5.06768  	5.31359  	15.68079  	-1.18512  	0.01663  	0.36808  	0.35895  	-3.02442  	0.07180  	-0.08556  	-92.85524  	-1.21914  	105.94116  	108.63385  	-15709.08418  	-4204.58583  	0.00457  	0.00003  	0.00423  	0.00432  	0.00567  	0.00000  	0.00000  
44.84374  	22.99955  	5.06826  	5.31407  	15.68113  	-1.18512  	0.01844  	0.36891  	0.35245  	-3.02442  	0.07306  	-0.08570  	-92.80692  	-1.21862  	104.02226  	108.87870  	-15708.47165  	-4204.64976  	0.00456  	0.00003  	0.00423  	0.00435  	0.00567  	0.00000  	0.00000  
45.84703  	22.98997  	5.06842  	5.31430  	15.68109  	-1.18512  	0.01841  	0.36756  	0.35444  	-3.02442  	0.07185  	-0.08566  	-92.68601  	-1.21897  	104.60841  	108.48098  	-15706.57516  	-4204.67326  	0.00457  	0.00003  	0.00423  	0.00435  	0.00567  	0.00000  	0.00000  
46.85038  	22.99359  	5.06762  	5.31336  	15.68128  	-1.18512  	0.01842  	0.36718  	0.35330  	-3.02442  	0.07252  	-0.08565  	-92.72951  	-1.21826  	104.27134  	108.37044  	-15707.32775  	-4204.56866  	0.00457  	0.00003  	0.00423  	0.00435  	0.00567  	0.00000  	0.00000  
47.85169  	22.99707  	5.06784  	5.31333  	15.68185  	-1.18512  	0.01781  	0.36666  	0.35182  	-3.02442  	0.07436  	-0.08575  	-92.76644  	-1.21704  	103.83638  	108.21655  	-15708.12340  	-4204.58035  	0.00456  	0.00002  	0.00424  	0.00434  	0.00566  	0.00000  	0.00000  
48.85504  	22.99462  	5.06793  	5.31420  	15.68162  	-1.18512  	0.01811  	0.36649  	0.34983  	-3.02442  	0.07224  	-0.08572  	-92.73819  	-1.22096  	103.24909  	108.16421  	-15707.59664  	-4204.63759  	0.00456  	0.00003  	0.00423  	0.00435  	0.00566  	0.00000  	0.00000  
49.85835  	22.99447  	5.06887  	5.31337  	15.68126  	-1.18512  	0.01736  	0.36496  	0.35050  	-3.02442  	0.07370  	-0.08565  	-92.74100  	-1.21214  	103.44586  	107.71343  	-15707.49520  	-4204.64451  	0.00456  	0.00003  	0.00424  	0.00433  	0.00566  	0.00000  	0.00000  
50.85968  	23.00339  	5.06865  	5.31311  	15.68112  	-1.18512  	0.01885  	0.36326  	0.35047  	-3.02442  	0.07327  	-0.08570  	-92.85582  	-1.21194  	103.43829  	107.21123  	-15709.22625  	-4204.61543  	0.00456  	0.00003  	0.00423  	0.00436  	0.00565  	0.00000  	0.00000  
51.86300  	23.00394  	5.06698  	5.31273  	15.67975  	-1.18512  	0.01966  	0.36326  	0.34999  	-3.02442  	0.07452  	-0.08571  	-92.88023  	-1.21836  	103.29593  	107.21135  	-15709.06522  	-4204.49247  	0.00456  	0.00003  	0.00424  	0.00438  	0.00565  	0.00000  	0.00000  
52.86631  	22.99917  	5.06805  	5.31234  	15.67913  	-1.18512  	0.01828  	0.36261  	0.34565  	-3.02442  	0.07310  	-0.08568  	-92.82764  	-1.21113  	102.01475  	107.02140  	-15708.00165  	-4204.53373  	0.00455  	0.00003  	0.00423  	0.00435  	0.00565  	0.00000  	0.00000  
53.86763  	23.00186  	5.06700  	5.31163  	15.67694  	-1.18512  	0.01825  	0.36193  	0.34817  	-3.02442  	0.07370  	-0.08564  	-92.88948  	-1.21283  	102.75836  	106.81985  	-15708.10068  	-4204.42812  	0.00456  	0.00003  	0.00424  	0.00435  	0.00564  	0.00000  	0.00000  
54.86995  	23.00469  	5.06694  	5.31124  	15.67651  	-1.18512  	0.01863  	0.36085  	0.34639  	-3.02442  	0.07357  	-0.08570  	-92.93088  	-1.21117  	102.23249  	106.50064  	-15708.57478  	-4204.40100  	0.00455  	0.00003  	0.00424  	0.00436  	0.00564  	0.00000  	0.00000  
55.87324  	23.00054  	5.06747  	5.31097  	15.67449  	-1.18512  	0.01881  	0.35955  	0.34549  	-3.02442  	0.07328  	-0.08568  	-92.90386  	-1.20717  	101.96747  	106.11724  	-15707.36044  	-4204.41651  	0.00455  	0.00003  	0.00423  	0.00436  	0.00563  	0.00000  	0.00000  
56.87462  	22.99535  	5.06742  	5.31205  	15.67255  	-1.18512  	0.01887  	0.36197  	0.34284  	-3.02442  	0.07284  	-0.08568  	-92.86255  	-1.21283  	101.18614  	106.83132  	-15705.95376  	-4204.47845  	0.00455  	0.00003  	0.00423  	0.00436  	0.00564  	0.00000  	0.00000  
57.87694  	22.99516  	5.06696  	5.31226  	15.67064  	-1.18512  	0.01857  	0.36324  	0.34754  	-3.02442  	0.07334  	-0.08567  	-92.88444  	-1.21611  	102.57224  	107.20583  	-15705.53937  	-4204.46364  	0.00456  	0.00003  	0.00423  	0.00436  	0.00565  	0.00000  	0.00000  
58.88025  	23.00361  	5.06695  	5.31080  	15.66854  	-1.18512  	0.01795  	0.36342  	0.34651  	-3.02442  	0.07260  	-0.08567  	-93.01831  	-1.20888  	102.26721  	107.25932  	-15706.79132  	-4204.37532  	0.00455  	0.00003  	0.00423  	0.00434  	0.00565  	0.00000  	0.00000  
59.88157  	23.02076  	5.06653  	5.30999  	15.66734  	-1.18512  	0.01784  	0.36527  	0.34899  	-3.02442  	0.07406  	-0.08574  	-93.25103  	-1.20701  	102.99962  	107.80567  	-15709.93191  	-4204.30199  	0.00456  	0.00003  	0.00424  	0.00434  	0.00566  	0.00000  	0.00000  
60.88491  	22.99580  	5.06659  	5.31005  	15.66636  	-1.18512  	0.01811  	0.36573  	0.35107  	-3.02442  	0.07376  	-0.08571  	-92.94688  	-1.20700  	103.61480  	107.94169  	-15704.82282  	-4204.30876  	0.00456  	0.00003  	0.00424  	0.00435  	0.00566  	0.00000  	0.00000  
61.88825  	22.99617  	5.06723  	5.31060  	15.66479  	-1.18512  	0.01787  	0.36718  	0.35059  	-3.02442  	0.07272  	-0.08568  	-92.97143  	-1.20655  	103.47349  	108.36903  	-15704.58665  	-4204.38035  	0.00456  	0.00003  	0.00423  	0.00434  	0.00567  	0.00000  	0.00000  
62.88958  	23.00699  	5.06699  	5.31066  	15.66435  	-1.18512  	0.01807  	0.36814  	0.35571  	-3.02442  	0.07244  	-0.08564  	-93.11417  	-1.20808  	104.98383  	108.65164  	-15706.63135  	-4204.36925  	0.00457  	0.00003  	0.00423  	0.00435  	0.00567  	0.00000  	0.00000  
63.89091  	23.00235  	5.06674  	5.31101  	15.66277  	-1.18512  	0.01847  	0.36935  	0.35562  	-3.02442  	0.07297  	-0.08570  	-93.07545  	-1.21097  	104.95771  	109.01076  	-15705.40767  	-4204.37524  	0.00457  	0.00003  	0.00423  	0.00435  	0.00568  	0.00000  	0.00000  
64.89419  	23.00078  	5.06711  	5.31211  	15.66369  	-1.18512  	0.01826  	0.36890  	0.35541  	-3.02442  	0.07455  	-0.08567  	-93.04388  	-1.21459  	104.89540  	108.87637  	-15705.27918  	-4204.46349  	0.00457  	0.00003  	0.00424  	0.00435  	0.00567  	0.00000  	0.00000  
65.89554  	23.00067  	5.06710  	5.31163  	15.66396  	-1.18512  	0.01940  	0.37077  	0.35577  	-3.02442  	0.07193  	-0.08564  	-93.03898  	-1.21226  	105.00291  	109.42937  	-15705.30998  	-4204.43395  	0.00457  	0.00003  	0.00423  	0.00437  	0.00568  	0.00000  	0.00000  
66.89886  	23.00113  	5.06663  	5.31159  	15.66447  	-1.18512  	0.01893  	0.37081  	0.35756  	-3.02442  	0.07399  	-0.08569  	-93.03844  	-1.21446  	105.52847  	109.43937  	-15705.50023  	-4204.40330  	0.00457  	0.00003  	0.00424  	0.00436  	0.00568  	0.00000  	0.00000  
67.90217  	23.00059  	5.06717  	5.31197  	15.66542  	-1.18512  	0.01765  	0.37106  	0.35822  	-3.02442  	0.07316  	-0.08572  	-93.01952  	-1.21365  	105.72579  	109.51548  	-15705.58199  	-4204.45877  	0.00457  	0.00003  	0.00423  	0.00434  	0.00568  	0.00000  	0.00000  
68.90350  	22.99831  	5.06723  	5.31237  	15.66664  	-1.18512  	0.01745  	0.37074  	0.35576  	-3.02442  	0.07217  	-0.08569  	-92.97509  	-1.21530  	104.99839  	109.42029  	-15705.37454  	-4204.48641  	0.00457  	0.00003  	0.00423  	0.00434  	0.00568  	0.00000  	0.00000  
69.90482  	22.99945  	5.06713  	5.31307  	15.66775  	-1.18512  	0.01837  	0.37164  	0.35840  	-3.02442  	0.07311  	-0.08567  	-92.97556  	-1.21927  	105.77637  	109.68605  	-15705.81712  	-4204.52245  	0.00457  	0.00003  	0.00423  	0.00435  	0.00569  	0.00000  	0.00000  
70.90614  	22.99767  	5.06726  	5.31244  	15.66924  	-1.18512  	0.01885  	0.37117  	0.35998  	-3.02442  	0.07293  	-0.08565  	-92.93402  	-1.21553  	106.24500  	109.54594  	-15705.75986  	-4204.49163  	0.00458  	0.00003  	0.00423  	0.00436  	0.00569  	0.00000  	0.00000  
71.90946  	22.99832  	5.06651  	5.31161  	15.67042  	-1.18512  	0.02019  	0.37177  	0.35490  	-3.02442  	0.07137  	-0.08567  	-92.92733  	-1.21516  	104.74358  	109.72464  	-15706.11925  	-4204.39753  	0.00457  	0.00003  	0.00423  	0.00439  	0.00569  	0.00000  	0.00000  
72.91078  	22.99720  	5.06599  	5.31167  	15.67234  	-1.18512  	0.01713  	0.37094  	0.35886  	-3.02442  	0.07214  	-0.08567  	-92.88873  	-1.21799  	105.91238  	109.47969  	-15706.27764  	-4204.36981  	0.00457  	0.00003  	0.00423  	0.00433  	0.00568  	0.00000  	0.00000  
73.91409  	22.99706  	5.06597  	5.31177  	15.67308  	-1.18512  	0.01856  	0.37053  	0.35493  	-3.02442  	0.07369  	-0.08574  	-92.87762  	-1.21862  	104.75228  	109.35679  	-15706.39525  	-4204.37460  	0.00457  	0.00003  	0.00424  	0.00436  	0.00568  	0.00000  	0.00000  
74.91641  	22.99456  	5.06631  	5.31001  	15.67401  	-1.18512  	0.01869  	0.36935  	0.35445  	-3.02442  	0.07182  	-0.08564  	-92.83421  	-1.20822  	104.61345  	109.01058  	-15706.08570  	-4204.28973  	0.00457  	0.00003  	0.00423  	0.00436  	0.00568  	0.00000  	0.00000  
75.91671  	22.99466  	5.06606  	5.31012  	15.67624  	-1.18512  	0.01942  	0.36954  	0.35320  	-3.02442  	0.07385  	-0.08568  	-92.80709  	-1.20995  	104.24262  	109.06609  	-15706.54599  	-4204.28149  	0.00457  	0.00003  	0.00424  	0.00437  	0.00568  	0.00000  	0.00000  
76.92005  	22.99477  	5.06528  	5.30876  	15.67657  	-1.18512  	0.01882  	0.36915  	0.35477  	-3.02442  	0.07360  	-0.08573  	-92.80441  	-1.20710  	104.70639  	108.95136  	-15706.63081  	-4204.15337  	0.00457  	0.00003  	0.00424  	0.00436  	0.00568  	0.00000  	0.00000  
77.92237  	22.99604  	5.06631  	5.30955  	15.67690  	-1.18512  	0.01828  	0.36740  	0.35481  	-3.02442  	0.07368  	-0.08570  	-92.81621  	-1.20591  	104.71844  	108.43381  	-15706.94657  	-4204.26214  	0.00457  	0.00003  	0.00424  	0.00435  	0.00567  	0.00000  	0.00000  
78.92369  	22.98859  	5.06613  	5.30977  	15.67745  	-1.18512  	0.01790  	0.36882  	0.35491  	-3.02442  	0.07166  	-0.08572  	-92.71478  	-1.20789  	104.74869  	108.85226  	-15705.58765  	-4204.26472  	0.00457  	0.00003  	0.00423  	0.00434  	0.00567  	0.00000  	0.00000  
79.92601  	22.99351  	5.06611  	5.30925  	15.67810  	-1.18512  	0.01910  	0.36848  	0.34955  	-3.02442  	0.07405  	-0.08569  	-92.76895  	-1.20540  	103.16700  	108.75417  	-15706.68486  	-4204.23167  	0.00456  	0.00003  	0.00424  	0.00437  	0.00567  	0.00000  	0.00000  
80.92765  	22.99327  	5.06551  	5.30946  	15.67768  	-1.18512  	0.01791  	0.36732  	0.35333  	-3.02442  	0.07128  	-0.08569  	-92.77127  	-1.20943  	104.28166  	108.41134  	-15706.55661  	-4204.20849  	0.00457  	0.00003  	0.00423  	0.00434  	0.00567  	0.00000  	0.00000  
81.93097  	22.99330  	5.06622  	5.31017  	15.67730  	-1.18512  	0.01754  	0.36693  	0.34981  	-3.02442  	0.07381  	-0.08566  	-92.77643  	-1.20943  	103.24248  	108.29484  	-15706.48676  	-4204.29434  	0.00456  	0.00003  	0.00424  	0.00434  	0.00567  	0.00000  	0.00000  
82.93428  	22.99002  	5.06636  	5.31145  	15.67713  	-1.18512  	0.01784  	0.36580  	0.35302  	-3.02442  	0.07055  	-0.08566  	-92.73699  	-1.21504  	104.18932  	107.96273  	-15705.80747  	-4204.37875  	0.00456  	0.00003  	0.00423  	0.00434  	0.00566  	0.00000  	0.00000  
83.93471  	22.99568  	5.06706  	5.31200  	15.67695  	-1.18512  	0.01968  	0.36680  	0.35095  	-3.02442  	0.07277  	-0.08570  	-92.81100  	-1.21435  	103.58011  	108.25807  	-15706.88470  	-4204.45353  	0.00456  	0.00003  	0.00423  	0.00438  	0.00567  	0.00000  	0.00000  
84.93803  	22.99236  	5.06703  	5.31322  	15.67704  	-1.18512  	0.01815  	0.36472  	0.35335  	-3.02442  	0.07198  	-0.08563  	-92.76769  	-1.22050  	104.28648  	107.64338  	-15706.24911  	-4204.52503  	0.00457  	0.00003  	0.00423  	0.00435  	0.00566  	0.00000  	0.00000  
85.94135  	22.99289  	5.06746  	5.31272  	15.67679  	-1.18512  	0.01815  	0.36520  	0.35206  	-3.02442  	0.07240  	-0.08576  	-92.77759  	-1.21589  	103.90716  	107.78547  	-15706.30473  	-4204.52116  	0.00456  	0.00002  	0.00423  	0.00435  	0.00566  	0.00000  	0.00000  
86.94267  	22.99299  	5.06804  	5.31246  	15.67547  	-1.18512  	0.01858  	0.36278  	0.34757  	-3.02442  	0.07103  	-0.08572  	-92.79567  	-1.21174  	102.58095  	107.07043  	-15706.06454  	-4204.54035  	0.00456  	0.00003  	0.00423  	0.00436  	0.00565  	0.00000  	0.00000  
87.94598  	22.99558  	5.06793  	5.31277  	15.67479  	-1.18512  	0.01818  	0.36275  	0.34401  	-3.02442  	0.07322  	-0.08577  	-92.83714  	-1.21383  	101.52931  	107.06310  	-15706.44099  	-4204.55188  	0.00455  	0.00002  	0.00423  	0.00435  	0.00565  	0.00000  	0.00000  
88.94930  	22.99627  	5.06741  	5.31247  	15.67306  	-1.18512  	0.01826  	0.36120  	0.34785  	-3.02442  	0.07236  	-0.08569  	-92.86784  	-1.21496  	102.66317  	106.60481  	-15706.23641  	-4204.50279  	0.00456  	0.00003  	0.00423  	0.00435  	0.00564  	0.00000  	0.00000  
89.95062  	22.99932  	5.06732  	5.31346  	15.67244  	-1.18512  	0.01878  	0.36033  	0.34760  	-3.02442  	0.07246  	-0.08572  	-92.91432  	-1.22025  	102.59132  	106.34743  	-15706.71398  	-4204.55693  	0.00456  	0.00003  	0.00423  	0.00436  	0.00564  	0.00000  	0.00000  
90.95294  	22.99672  	5.06682  	5.31331  	15.67056  	-1.18512  	0.01828  	0.35949  	0.34803  	-3.02442  	0.07328  	-0.08576  	-92.90520  	-1.22204  	102.71752  	106.10084  	-15705.83210  	-4204.51767  	0.00456  	0.00002  	0.00423  	0.00435  	0.00563  	0.00000  	0.00000  
91.95626  	22.99684  	5.06665  	5.31189  	15.66802  	-1.18512  	0.01883  	0.36123  	0.34769  	-3.02442  	0.07388  	-0.08570  	-92.93892  	-1.21581  	102.61626  	106.61289  	-15705.35485  	-4204.42217  	0.00456  	0.00003  	0.00424  	0.00436  	0.00564  	0.00000  	0.00000  
92.95758  	22.99824  	5.06636  	5.31181  	15.66613  	-1.18512  	0.01871  	0.36278  	0.34993  	-3.02442  	0.07195  	-0.08571  	-92.98063  	-1.21686  	103.27936  	107.06979  	-15705.25912  	-4204.40086  	0.00456  	0.00003  	0.00423  	0.00436  	0.00565  	0.00000  	0.00000  
93.96090  	22.99526  	5.06727  	5.31173  	15.66472  	-1.18512  	0.01862  	0.36500  	0.35158  	-3.02442  	0.07278  	-0.08572  	-92.96074  	-1.21195  	103.76437  	107.72607  	-15704.39355  	-4204.45057  	0.00456  	0.00003  	0.00423  	0.00436  	0.00566  	0.00000  	0.00000  
94.96424  	22.99226  	5.06804  	5.31127  	15.66260  	-1.18512  	0.01839  	0.36576  	0.35166  	-3.02442  	0.07195  	-0.08561  	-92.94964  	-1.20584  	103.78885  	107.95064  	-15703.38592  	-4204.46887  	0.00456  	0.00003  	0.00423  	0.00435  	0.00566  	0.00000  	0.00000  
95.96556  	22.99569  	5.06696  	5.31200  	15.66141  	-1.18512  	0.01918  	0.36743  	0.35368  	-3.02442  	0.07253  	-0.08574  	-93.00833  	-1.21482  	104.38431  	108.44171  	-15703.82771  	-4204.44736  	0.00457  	0.00003  	0.00423  	0.00437  	0.00567  	0.00000  	0.00000  
96.96731  	22.99907  	5.06722  	5.31115  	15.66045  	-1.18512  	0.01816  	0.36740  	0.35566  	-3.02442  	0.07239  	-0.08570  	-93.06332  	-1.20934  	104.96996  	108.43459  	-15704.30423  	-4204.41220  	0.00457  	0.00003  	0.00423  	0.00435  	0.00567  	0.00000  	0.00000  
97.96864  	22.98994  	5.06788  	5.31015  	15.66003  	-1.18512  	0.01831  	0.36907  	0.34898  	-3.02442  	0.07159  	-0.08573  	-92.95289  	-1.20110  	102.99621  	108.92738  	-15702.42305  	-4204.39191  	0.00456  	0.00003  	0.00423  	0.00435  	0.00568  	0.00000  	0.00000  
98.97195  	22.99489  	5.06766  	5.31021  	15.65980  	-1.18512  	0.01911  	0.37030  	0.35611  	-3.02442  	0.07452  	-0.08567  	-93.01859  	-1.20249  	105.10245  	109.28889  	-15703.35382  	-4204.38251  	0.00457  	0.00003  	0.00424  	0.00437  	0.00568  	0.00000  	0.00000  
99.97430  	22.99414  	5.06783  	5.31202  	15.66061  	-1.18512  	0.01883  	0.37053  	0.35316  	-3.02442  	0.07177  	-0.08568  	-92.99871  	-1.21062  	104.23148  	109.35804  	-15703.36548  	-4204.50076  	0.00457  	0.00003  	0.00423  	0.00436  	0.00568  	0.00000  	0.00000  
100.97559  	23.00255  	5.06816  	5.31167  	15.66171  	-1.18512  	0.01930  	0.37009  	0.35387  	-3.02442  	0.07186  	-0.08564  	-93.09136  	-1.20724  	104.44113  	109.22780  	-15705.23771  	-4204.49986  	0.00457  	0.00003  	0.00423  	0.00437  	0.00568  	0.00000  	0.00000  
101.97891  	23.00039  	5.06829  	5.31203  	15.66319  	-1.18512  	0.01873  	0.37041  	0.35512  	-3.02442  	0.07161  	-0.08568  	-93.04511  	-1.20838  	104.81033  	109.32348  	-15705.10399  	-4204.52886  	0.00457  	0.00003  	0.00423  	0.00436  	0.00568  	0.00000  	0.00000  
102.98025  	23.00619  	5.06756  	5.31188  	15.66401  	-1.18512  	0.01798  	0.37086  	0.35706  	-3.02442  	0.07252  	-0.08562  	-93.10833  	-1.21125  	105.38322  	109.45651  	-15706.40758  	-4204.47621  	0.00457  	0.00003  	0.00423  	0.00435  	0.00568  	0.00000  	0.00000  
103.98155  	23.01390  	5.06752  	5.31139  	15.66552  	-1.18512  	0.01851  	0.37179  	0.35932  	-3.02442  	0.07248  	-0.08572  	-93.18704  	-1.20904  	106.04788  	109.72839  	-15708.22426  	-4204.44513  	0.00457  	0.00003  	0.00423  	0.00436  	0.00569  	0.00000  	0.00000  
104.98290  	23.00943  	5.06801  	5.31173  	15.66672  	-1.18512  	0.01789  	0.37122  	0.36021  	-3.02442  	0.07319  	-0.08563  	-93.11511  	-1.20830  	106.31168  	109.56074  	-15707.57789  	-4204.49474  	0.00458  	0.00003  	0.00423  	0.00434  	0.00569  	0.00000  	0.00000  
105.98721  	23.00289  	5.06850  	5.31207  	15.66942  	-1.18512  	0.01851  	0.37059  	0.36341  	-3.02442  	0.07300  	-0.08558  	-92.99796  	-1.20754  	107.25543  	109.37588  	-15706.82217  	-4204.54419  	0.00458  	0.00003  	0.00423  	0.00436  	0.00568  	0.00000  	0.00000  
106.98853  	23.00677  	5.06789  	5.31216  	15.67040  	-1.18512  	0.01923  	0.37153  	0.35672  	-3.02442  	0.07300  	-0.08565  	-93.03462  	-1.21103  	105.28275  	109.65266  	-15707.77946  	-4204.51318  	0.00457  	0.00003  	0.00423  	0.00437  	0.00569  	0.00000  	0.00000  
107.99185  	23.00541  	5.06790  	5.31277  	15.67206  	-1.18512  	0.01877  	0.36919  	0.35450  	-3.02442  	0.07225  	-0.08563  	-92.99644  	-1.21397  	104.62617  	108.96326  	-15707.83864  	-4204.55019  	0.00457  	0.00003  	0.00423  	0.00436  	0.00568  	0.00000  	0.00000  
108.99517  	23.00022  	5.06794  	5.31242  	15.67308  	-1.18512  	0.01881  	0.36862  	0.35380  	-3.02442  	0.07465  	-0.08561  	-92.91762  	-1.21205  	104.42143  	108.79403  	-15707.01941  	-4204.53189  	0.00457  	0.00003  	0.00424  	0.00436  	0.00567  	0.00000  	0.00000  
109.99848  	22.99958  	5.06807  	5.31282  	15.67368  	-1.18512  	0.01828  	0.36875  	0.35681  	-3.02442  	0.07218  	-0.08568  	-92.90196  	-1.21341  	105.30933  	108.83211  	-15707.01057  	-4204.56341  	0.00457  	0.00003  	0.00423  	0.00435  	0.00567  	0.00000  	0.00000  
110.99883  	22.99527  	5.06901  	5.31233  	15.67562  	-1.18512  	0.01882  	0.36882  	0.35224  	-3.02442  	0.07378  	-0.08572  	-92.82261  	-1.20628  	103.95950  	108.85207  	-15706.54223  	-4204.59052  	0.00456  	0.00003  	0.00424  	0.00436  	0.00567  	0.00000  	0.00000  
112.00212  	23.00075  	5.06866  	5.31329  	15.67529  	-1.18512  	0.01706  	0.36856  	0.35275  	-3.02442  	0.07185  	-0.08573  	-92.89631  	-1.21279  	104.11151  	108.77613  	-15707.55568  	-4204.62657  	0.00456  	0.00003  	0.00423  	0.00433  	0.00567  	0.00000  	0.00000  
113.00544  	23.00394  	5.06800  	5.31385  	15.67607  	-1.18512  	0.01765  	0.36843  	0.35087  	-3.02442  	0.07190  	-0.08561  	-92.92681  	-1.21885  	103.55631  	108.73919  	-15708.33922  	-4204.62144  	0.00456  	0.00003  	0.00423  	0.00434  	0.00567  	0.00000  	0.00000  
114.00676  	23.00000  	5.06822  	5.31341  	15.67666  	-1.18512  	0.01771  	0.36559  	0.35216  	-3.02442  	0.07252  	-0.08567  	-92.86937  	-1.21558  	103.93537  	107.89954  	-15707.67887  	-4204.60805  	0.00456  	0.00003  	0.00423  	0.00434  	0.00566  	0.00000  	0.00000  
115.01010  	22.99513  	5.06789  	5.31213  	15.67622  	-1.18512  	0.01743  	0.36772  	0.35143  	-3.02442  	0.07256  	-0.08567  	-92.81322  	-1.21086  	103.72049  	108.52875  	-15706.63355  	-4204.51091  	0.00456  	0.00003  	0.00423  	0.00433  	0.00567  	0.00000  	0.00000  
116.01339  	22.99134  	5.06809  	5.31194  	15.67653  	-1.18512  	0.01768  	0.36745  	0.35140  	-3.02442  	0.07238  	-0.08560  	-92.76129  	-1.20890  	103.71143  	108.44806  	-15705.94941  	-4204.51165  	0.00456  	0.00003  	0.00423  	0.00434  	0.00567  	0.00000  	0.00000  
117.01474  	22.98914  	5.06810  	5.31188  	15.67575  	-1.18512  	0.01735  	0.36583  	0.35159  	-3.02442  	0.07342  	-0.08562  	-92.74321  	-1.20854  	103.76832  	107.97064  	-15705.36115  	-4204.50901  	0.00456  	0.00003  	0.00423  	0.00433  	0.00566  	0.00000  	0.00000  
118.01805  	23.00159  	5.06784  	5.31184  	15.67494  	-1.18512  	0.01857  	0.36492  	0.35027  	-3.02442  	0.07200  	-0.08566  	-92.91148  	-1.20972  	103.37912  	107.70287  	-15707.65272  	-4204.49090  	0.00456  	0.00003  	0.00423  	0.00436  	0.00566  	0.00000  	0.00000  
119.02037  	22.98953  	5.06787  	5.31078  	15.67434  	-1.18512  	0.01748  	0.36404  	0.35180  	-3.02442  	0.07274  	-0.08579  	-92.76614  	-1.20429  	103.82840  	107.44228  	-15705.15968  	-4204.42949  	0.00456  	0.00002  	0.00423  	0.00434  	0.00565  	0.00000  	0.00000  
120.02167  	22.98615  	5.06712  	5.31062  	15.67285  	-1.18512  	0.01721  	0.36396  	0.34682  	-3.02442  	0.07279  	-0.08565  	-92.74223  	-1.20716  	102.35986  	107.41876  	-15704.20138  	-4204.37483  	0.00455  	0.00003  	0.00423  	0.00433  	0.00565  	0.00000  	0.00000  
121.02501  	22.98937  	5.06769  	5.31165  	15.67246  	-1.18512  	0.01944  	0.36299  	0.34893  	-3.02442  	0.07210  	-0.08569  	-92.78789  	-1.20949  	102.98160  	107.13119  	-15704.75837  	-4204.47047  	0.00456  	0.00003  	0.00423  	0.00437  	0.00565  	0.00000  	0.00000  
10/23/2024 10:28:51Time	T_hot_in(C)	T_cold_in(C)	T_cold_out(C)	T_hot_out(C)	mdot_cold(kg/s)	ASFASIFUAS(kg/s)	Diferencial_cold(bar)	Diferencial_hot(bar)	mdot_hot(kg/s)	ABS_cold(bar)	ABS_hot(bar)	q_cold(kW)	q_hot(kW)	ASFASYFY	Tau_cold_haste	Re_hot	Re_cold	U_global	PSIG_cold(bar)	R_fouling	PSIG_hot(bar)	PSID_hot(bar)	m_dot_hot	PSID_cold(bar)	m_dot_cold
1.74037  	0.00000  	0.00000  	0.00000  	0.00000  	-1.18512  	-0.20833  	-0.86278  	-2.50000  	-3.02442  	-1.25000  	-0.08628  	-0.00000  	-0.00000  	-737.84722  	-254.63905  	-9234.48090  	-3618.55272  	0.00000  	0.00000  	0.00000  	0.00000  	0.00000  	0.00000  	0.00000  
2.74069  	22.98923  	5.07038  	5.31418  	15.66595  	-1.18512  	0.01832  	0.37092  	0.36041  	-3.02442  	0.07356  	-0.08574  	-92.86851  	-1.20867  	106.37222  	109.47326  	-15703.44946  	-4204.78311  	0.00458  	0.00003  	0.00424  	0.00435  	0.00568  	0.00000  	0.00000  
3.74401  	22.99221  	5.06920  	5.31329  	15.66751  	-1.18512  	0.01853  	0.36962  	0.35206  	-3.02442  	0.07211  	-0.08575  	-92.88662  	-1.21013  	103.90711  	109.09036  	-15704.34341  	-4204.65943  	0.00456  	0.00002  	0.00423  	0.00436  	0.00568  	0.00000  	0.00000  
4.74730  	22.98910  	5.06872  	5.31464  	15.67020  	-1.18512  	0.01923  	0.36818  	0.35778  	-3.02442  	0.07188  	-0.08566  	-92.81310  	-1.21918  	105.59615  	108.66305  	-15704.26071  	-4204.71097  	0.00457  	0.00003  	0.00423  	0.00437  	0.00567  	0.00000  	0.00000  
5.74865  	22.99246  	5.06954  	5.31435  	15.67156  	-1.18512  	0.01860  	0.36993  	0.35618  	-3.02442  	0.07039  	-0.08574  	-92.83842  	-1.21367  	105.12153  	109.18008  	-15705.19065  	-4204.74345  	0.00457  	0.00002  	0.00423  	0.00436  	0.00568  	0.00000  	0.00000  
6.75097  	23.00029  	5.06936  	5.31402  	15.67173  	-1.18512  	0.01728  	0.36820  	0.35180  	-3.02442  	0.07213  	-0.08568  	-92.93569  	-1.21296  	103.82839  	108.66936  	-15706.76577  	-4204.71291  	0.00456  	0.00003  	0.00423  	0.00433  	0.00567  	0.00000  	0.00000  
7.75428  	22.99950  	5.06832  	5.31436  	15.67312  	-1.18512  	0.01957  	0.36870  	0.35503  	-3.02442  	0.07180  	-0.08570  	-92.90799  	-1.21975  	104.78246  	108.81762  	-15706.88409  	-4204.67069  	0.00457  	0.00003  	0.00423  	0.00438  	0.00567  	0.00000  	0.00000  
8.75595  	23.00248  	5.06907  	5.31361  	15.67362  	-1.18512  	0.01879  	0.36809  	0.35964  	-3.02442  	0.07268  	-0.08569  	-92.93948  	-1.21232  	106.14455  	108.63822  	-15707.56913  	-4204.67075  	0.00458  	0.00003  	0.00423  	0.00436  	0.00567  	0.00000  	0.00000  
9.75927  	23.00132  	5.06907  	5.31379  	15.67564  	-1.18512  	0.01881  	0.36823  	0.35408  	-3.02442  	0.07307  	-0.08571  	-92.89901  	-1.21325  	104.50300  	108.67914  	-15707.73892  	-4204.68154  	0.00457  	0.00003  	0.00423  	0.00436  	0.00567  	0.00000  	0.00000  
10.76062  	23.00358  	5.06931  	5.31346  	15.67653  	-1.18512  	0.01608  	0.36736  	0.35690  	-3.02442  	0.07225  	-0.08570  	-92.91651  	-1.21040  	105.33419  	108.42254  	-15708.35838  	-4204.67588  	0.00457  	0.00003  	0.00423  	0.00431  	0.00567  	0.00000  	0.00000  
11.76249  	23.00170  	5.06973  	5.31415  	15.67685  	-1.18512  	0.01681  	0.36744  	0.35157  	-3.02442  	0.07199  	-0.08567  	-92.88853  	-1.21178  	103.76302  	108.44595  	-15708.05032  	-4204.74238  	0.00456  	0.00003  	0.00423  	0.00432  	0.00567  	0.00000  	0.00000  
12.76578  	23.00741  	5.06966  	5.31359  	15.67736  	-1.18512  	0.01671  	0.36584  	0.35578  	-3.02442  	0.07447  	-0.08572  	-92.95448  	-1.20932  	105.00494  	107.97222  	-15709.27602  	-4204.70471  	0.00457  	0.00003  	0.00424  	0.00432  	0.00566  	0.00000  	0.00000  
13.76812  	23.00646  	5.06900  	5.31363  	15.67729  	-1.18512  	0.01819  	0.36581  	0.34502  	-3.02442  	0.07201  	-0.08572  	-92.94338  	-1.21279  	101.82820  	107.96497  	-15709.07594  	-4204.66808  	0.00455  	0.00003  	0.00423  	0.00435  	0.00566  	0.00000  	0.00000  
14.76960  	23.01186  	5.06984  	5.31329  	15.67766  	-1.18512  	0.01858  	0.36391  	0.35192  	-3.02442  	0.07275  	-0.08566  	-93.00716  	-1.20691  	103.86580  	107.40483  	-15710.21164  	-4204.69787  	0.00456  	0.00003  	0.00423  	0.00436  	0.00565  	0.00000  	0.00000  
15.77289  	23.00500  	5.06868  	5.31223  	15.67629  	-1.18512  	0.01883  	0.36464  	0.34761  	-3.02442  	0.07320  	-0.08565  	-92.93741  	-1.20746  	102.59367  	107.61800  	-15708.59133  	-4204.56481  	0.00456  	0.00003  	0.00423  	0.00436  	0.00566  	0.00000  	0.00000  
16.77524  	23.00356  	5.06922  	5.31178  	15.67621  	-1.18512  	0.01855  	0.36362  	0.34555  	-3.02442  	0.07414  	-0.08572  	-92.92025  	-1.20252  	101.98417  	107.31710  	-15708.29190  	-4204.56987  	0.00455  	0.00003  	0.00424  	0.00436  	0.00565  	0.00000  	0.00000  
17.77704  	23.00534  	5.06938  	5.31234  	15.67515  	-1.18512  	0.01800  	0.36173  	0.34706  	-3.02442  	0.07222  	-0.08571  	-92.95626  	-1.20450  	102.42971  	106.76028  	-15708.43343  	-4204.61326  	0.00456  	0.00003  	0.00423  	0.00435  	0.00564  	0.00000  	0.00000  
18.77835  	23.00948  	5.06913  	5.31216  	15.67377  	-1.18512  	0.01810  	0.36151  	0.34712  	-3.02442  	0.07287  	-0.08562  	-93.02621  	-1.20489  	102.44879  	106.69673  	-15708.97732  	-4204.58759  	0.00456  	0.00003  	0.00423  	0.00435  	0.00564  	0.00000  	0.00000  
19.77968  	23.00868  	5.06890  	5.31294  	15.67354  	-1.18512  	0.01797  	0.36052  	0.34557  	-3.02442  	0.07114  	-0.08571  	-93.01909  	-1.20988  	101.99059  	106.40403  	-15708.77396  	-4204.62014  	0.00455  	0.00003  	0.00423  	0.00434  	0.00564  	0.00000  	0.00000  
20.78200  	23.00748  	5.06945  	5.31346  	15.67170  	-1.18512  	0.01707  	0.35938  	0.34337  	-3.02442  	0.07225  	-0.08568  	-93.02719  	-1.20972  	101.34214  	106.06833  	-15708.17582  	-4204.68418  	0.00455  	0.00003  	0.00423  	0.00433  	0.00563  	0.00000  	0.00000  
21.78531  	23.00595  	5.06946  	5.31280  	15.67001  	-1.18512  	0.01758  	0.36122  	0.34405  	-3.02442  	0.07324  	-0.08575  	-93.02923  	-1.20642  	101.54362  	106.60892  	-15707.54061  	-4204.64580  	0.00455  	0.00002  	0.00423  	0.00434  	0.00564  	0.00000  	0.00000  
22.78661  	23.00618  	5.06937  	5.31311  	15.66714  	-1.18512  	0.01976  	0.36427  	0.34931  	-3.02442  	0.07314  	-0.08574  	-93.06851  	-1.20836  	103.09398  	107.51043  	-15707.02008  	-4204.65871  	0.00456  	0.00002  	0.00423  	0.00438  	0.00565  	0.00000  	0.00000  
23.78995  	23.00514  	5.07033  	5.31312  	15.66642  	-1.18512  	0.01837  	0.36578  	0.34609  	-3.02442  	0.07155  	-0.08570  	-93.06449  	-1.20372  	102.14396  	107.95683  	-15706.67558  	-4204.71684  	0.00455  	0.00003  	0.00423  	0.00435  	0.00566  	0.00000  	0.00000  
24.79324  	23.00899  	5.07102  	5.31369  	15.66491  	-1.18512  	0.01903  	0.36564  	0.35224  	-3.02442  	0.07250  	-0.08568  	-93.13233  	-1.20309  	103.95983  	107.91466  	-15707.13570  	-4204.79206  	0.00456  	0.00003  	0.00423  	0.00437  	0.00566  	0.00000  	0.00000  
25.79459  	23.01108  	5.07058  	5.31424  	15.66341  	-1.18512  	0.01732  	0.36814  	0.35307  	-3.02442  	0.07141  	-0.08571  	-93.17792  	-1.20801  	104.20332  	108.65177  	-15707.25293  	-4204.79908  	0.00456  	0.00003  	0.00423  	0.00433  	0.00567  	0.00000  	0.00000  
26.79788  	23.00905  	5.06968  	5.31420  	15.66300  	-1.18512  	0.01856  	0.36822  	0.35348  	-3.02442  	0.07414  	-0.08565  	-93.15744  	-1.21224  	104.32659  	108.67704  	-15706.77195  	-4204.74257  	0.00457  	0.00003  	0.00424  	0.00436  	0.00567  	0.00000  	0.00000  
27.80133  	23.00879  	5.06989  	5.31504  	15.66373  	-1.18512  	0.01860  	0.36873  	0.35111  	-3.02442  	0.07089  	-0.08564  	-93.14487  	-1.21536  	103.62538  	108.82600  	-15706.86368  	-4204.80528  	0.00456  	0.00003  	0.00423  	0.00436  	0.00567  	0.00000  	0.00000  
28.80266  	23.01368  	5.06982  	5.31340  	15.66336  	-1.18512  	0.01857  	0.37040  	0.35225  	-3.02442  	0.07244  	-0.08567  	-93.21156  	-1.20762  	103.96399  	109.31983  	-15707.75451  	-4204.70298  	0.00456  	0.00003  	0.00423  	0.00436  	0.00568  	0.00000  	0.00000  
29.80601  	23.01723  	5.07008  	5.31402  	15.66370  	-1.18512  	0.01910  	0.37113  	0.35580  	-3.02442  	0.07222  	-0.08574  	-93.25226  	-1.20939  	105.01009  	109.53593  	-15708.51985  	-4204.75607  	0.00457  	0.00003  	0.00423  	0.00437  	0.00569  	0.00000  	0.00000  
30.80644  	23.01841  	5.06956  	5.31380  	15.66513  	-1.18512  	0.01960  	0.37001  	0.35882  	-3.02442  	0.07449  	-0.08572  	-93.24913  	-1.21087  	105.90204  	109.20407  	-15709.03541  	-4204.71165  	0.00457  	0.00003  	0.00424  	0.00438  	0.00568  	0.00000  	0.00000  
31.80776  	23.01663  	5.06964  	5.31283  	15.66660  	-1.18512  	0.01690  	0.37120  	0.35433  	-3.02442  	0.07227  	-0.08566  	-93.20792  	-1.20569  	104.57521  	109.55468  	-15708.97438  	-4204.65810  	0.00457  	0.00003  	0.00423  	0.00432  	0.00569  	0.00000  	0.00000  
32.81108  	23.01941  	5.06910  	5.31118  	15.66702  	-1.18512  	0.01925  	0.37187  	0.35576  	-3.02442  	0.07359  	-0.08576  	-93.23784  	-1.20011  	104.99877  	109.75356  	-15709.60416  	-4204.52696  	0.00457  	0.00002  	0.00424  	0.00437  	0.00569  	0.00000  	0.00000  
33.81340  	23.01935  	5.06882  	5.31093  	15.66827  	-1.18512  	0.01686  	0.37143  	0.35669  	-3.02442  	0.07301  	-0.08572  	-93.22120  	-1.20027  	105.27313  	109.62418  	-15709.83767  	-4204.49503  	0.00457  	0.00003  	0.00423  	0.00432  	0.00569  	0.00000  	0.00000  
34.81472  	23.01467  	5.06795  	5.31132  	15.67002  	-1.18512  	0.01821  	0.37120  	0.35870  	-3.02442  	0.07106  	-0.08567  	-93.13969  	-1.20655  	105.86619  	109.55595  	-15709.25942  	-4204.46581  	0.00457  	0.00003  	0.00423  	0.00435  	0.00569  	0.00000  	0.00000  
35.81803  	23.01531  	5.06784  	5.31015  	15.67127  	-1.18512  	0.01812  	0.37139  	0.36075  	-3.02442  	0.07259  	-0.08570  	-93.13201  	-1.20129  	106.47108  	109.61201  	-15709.63430  	-4204.39010  	0.00458  	0.00003  	0.00423  	0.00435  	0.00569  	0.00000  	0.00000  
36.82035  	23.01780  	5.06814  	5.31031  	15.67367  	-1.18512  	0.01778  	0.37020  	0.35614  	-3.02442  	0.07308  	-0.08567  	-93.13311  	-1.20061  	105.11033  	109.26074  	-15710.59781  	-4204.41694  	0.00457  	0.00003  	0.00423  	0.00434  	0.00568  	0.00000  	0.00000  
37.82178  	23.01708  	5.06760  	5.31043  	15.67568  	-1.18512  	0.01835  	0.36935  	0.35519  	-3.02442  	0.07227  	-0.08570  	-93.09844  	-1.20384  	104.82954  	109.01087  	-15710.84994  	-4204.39218  	0.00457  	0.00003  	0.00423  	0.00435  	0.00568  	0.00000  	0.00000  
38.82510  	23.01412  	5.06834  	5.31081  	15.67653  	-1.18512  	0.01840  	0.36851  	0.35469  	-3.02442  	0.07211  	-0.08569  	-93.05018  	-1.20207  	104.68314  	108.76254  	-15710.43329  	-4204.45950  	0.00457  	0.00003  	0.00423  	0.00435  	0.00567  	0.00000  	0.00000  
39.82741  	23.01827  	5.06781  	5.31092  	15.67751  	-1.18512  	0.01869  	0.36860  	0.35536  	-3.02442  	0.07387  	-0.08570  	-93.09039  	-1.20528  	104.88034  	108.78826  	-15711.44330  	-4204.43432  	0.00457  	0.00003  	0.00424  	0.00436  	0.00567  	0.00000  	0.00000  
40.82777  	23.01846  	5.06768  	5.31197  	15.67858  	-1.18512  	0.01786  	0.36755  	0.35672  	-3.02442  	0.07178  	-0.08564  	-93.07916  	-1.21111  	105.28221  	108.47708  	-15711.69424  	-4204.48940  	0.00457  	0.00003  	0.00423  	0.00434  	0.00567  	0.00000  	0.00000  
41.83106  	23.01299  	5.06753  	5.31127  	15.67920  	-1.18512  	0.01657  	0.36739  	0.35549  	-3.02442  	0.07098  	-0.08560  	-93.00195  	-1.20841  	104.91856  	108.43164  	-15710.73736  	-4204.43847  	0.00457  	0.00003  	0.00423  	0.00432  	0.00567  	0.00000  	0.00000  
42.83440  	23.01402  	5.06686  	5.31208  	15.67913  	-1.18512  	0.01765  	0.36717  	0.35388  	-3.02442  	0.07421  	-0.08567  	-93.01599  	-1.21569  	104.44511  	108.36660  	-15710.92834  	-4204.44673  	0.00457  	0.00003  	0.00424  	0.00434  	0.00567  	0.00000  	0.00000  
43.83573  	23.01435  	5.06748  	5.31125  	15.67995  	-1.18512  	0.01796  	0.36698  	0.35384  	-3.02442  	0.07328  	-0.08569  	-93.00962  	-1.20853  	104.43193  	108.30946  	-15711.15374  	-4204.43425  	0.00457  	0.00003  	0.00423  	0.00434  	0.00567  	0.00000  	0.00000  
44.83805  	23.01324  	5.06849  	5.31191  	15.68035  	-1.18512  	0.01814  	0.36781  	0.35173  	-3.02442  	0.07294  	-0.08567  	-92.99061  	-1.20678  	103.80852  	108.55548  	-15711.01318  	-4204.53397  	0.00456  	0.00003  	0.00423  	0.00435  	0.00567  	0.00000  	0.00000  
45.84136  	23.01547  	5.06814  	5.31258  	15.68014  	-1.18512  	0.01953  	0.36557  	0.35044  	-3.02442  	0.07246  	-0.08564  	-93.02159  	-1.21188  	103.42749  	107.89494  	-15711.41178  	-4204.55318  	0.00456  	0.00003  	0.00423  	0.00438  	0.00566  	0.00000  	0.00000  
46.84265  	23.01712  	5.06782  	5.31277  	15.68055  	-1.18512  	0.01712  	0.36634  	0.34992  	-3.02442  	0.07358  	-0.08570  	-93.03715  	-1.21437  	103.27521  	108.12134  	-15711.81773  	-4204.54510  	0.00456  	0.00003  	0.00424  	0.00433  	0.00566  	0.00000  	0.00000  
47.84600  	23.01716  	5.06884  	5.31346  	15.68015  	-1.18512  	0.01750  	0.36467  	0.35074  	-3.02442  	0.07215  	-0.08564  	-93.04279  	-1.21278  	103.51679  	107.62843  	-15711.74541  	-4204.64774  	0.00456  	0.00003  	0.00423  	0.00434  	0.00566  	0.00000  	0.00000  
48.84932  	23.00968  	5.06878  	5.31322  	15.67969  	-1.18512  	0.01860  	0.36469  	0.34621  	-3.02442  	0.07183  	-0.08568  	-92.95373  	-1.21185  	102.17956  	107.63471  	-15710.18168  	-4204.62992  	0.00455  	0.00003  	0.00423  	0.00436  	0.00566  	0.00000  	0.00000  
49.85063  	23.01375  	5.06917  	5.31298  	15.67898  	-1.18512  	0.01778  	0.36274  	0.35256  	-3.02442  	0.07301  	-0.08569  	-93.01440  	-1.20870  	104.05301  	107.05800  	-15710.84534  	-4204.63916  	0.00456  	0.00003  	0.00423  	0.00434  	0.00565  	0.00000  	0.00000  
50.85396  	23.01273  	5.06930  	5.31230  	15.67864  	-1.18512  	0.01894  	0.36203  	0.34582  	-3.02442  	0.07139  	-0.08571  	-93.00584  	-1.20471  	102.06410  	106.84807  	-15710.57667  	-4204.60557  	0.00455  	0.00003  	0.00423  	0.00436  	0.00564  	0.00000  	0.00000  
51.85727  	23.01721  	5.06945  	5.31315  	15.67785  	-1.18512  	0.01848  	0.36015  	0.34830  	-3.02442  	0.07266  	-0.08563  	-93.07256  	-1.20817  	102.79695  	106.29307  	-15711.30152  	-4204.66621  	0.00456  	0.00003  	0.00423  	0.00435  	0.00563  	0.00000  	0.00000  
52.85859  	23.01858  	5.06889  	5.31286  	15.67658  	-1.18512  	0.01770  	0.35953  	0.34389  	-3.02442  	0.07389  	-0.08571  	-93.10601  	-1.20954  	101.49650  	106.11156  	-15711.32191  	-4204.61472  	0.00455  	0.00003  	0.00424  	0.00434  	0.00563  	0.00000  	0.00000  
53.86191  	23.02140  	5.06820  	5.31322  	15.67497  	-1.18512  	0.01831  	0.35906  	0.34668  	-3.02442  	0.07103  	-0.08567  	-93.16230  	-1.21473  	102.31798  	105.97162  	-15711.56217  	-4204.59521  	0.00455  	0.00003  	0.00423  	0.00435  	0.00563  	0.00000  	0.00000  
54.86423  	23.01942  	5.06899  	5.31210  	15.67304  	-1.18512  	0.01855  	0.36088  	0.34779  	-3.02442  	0.07271  	-0.08575  	-93.16156  	-1.20526  	102.64692  	106.50924  	-15710.79196  	-4204.57539  	0.00456  	0.00002  	0.00423  	0.00436  	0.00564  	0.00000  	0.00000  
55.86552  	23.02269  	5.06798  	5.31155  	15.67099  	-1.18512  	0.01868  	0.36205  	0.35083  	-3.02442  	0.07354  	-0.08569  	-93.22919  	-1.20755  	103.54311  	106.85549  	-15711.03100  	-4204.48231  	0.00456  	0.00003  	0.00424  	0.00436  	0.00564  	0.00000  	0.00000  
56.86887  	23.02347  	5.06815  	5.31095  	15.66973  	-1.18512  	0.01965  	0.36461  	0.34847  	-3.02442  	0.07510  	-0.08570  	-93.25498  	-1.20376  	102.84681  	107.61144  	-15710.93868  	-4204.45622  	0.00456  	0.00003  	0.00424  	0.00438  	0.00566  	0.00000  	0.00000  
57.87216  	23.01938  	5.06761  	5.31003  	15.66944  	-1.18512  	0.01876  	0.36539  	0.35172  	-3.02442  	0.07123  	-0.08571  	-93.20687  	-1.20181  	103.80690  	107.84166  	-15710.07567  	-4204.36840  	0.00456  	0.00003  	0.00423  	0.00436  	0.00566  	0.00000  	0.00000  
58.87350  	23.01528  	5.06765  	5.31014  	15.66818  	-1.18512  	0.01851  	0.36646  	0.35256  	-3.02442  	0.07135  	-0.08561  	-93.17090  	-1.20217  	104.05278  	108.15572  	-15709.01822  	-4204.37803  	0.00456  	0.00003  	0.00423  	0.00436  	0.00566  	0.00000  	0.00000  
59.87693  	23.01447  	5.06623  	5.31050  	15.66764  	-1.18512  	0.01857  	0.36781  	0.35293  	-3.02442  	0.07180  	-0.08569  	-93.16743  	-1.21100  	104.16437  	108.55521  	-15708.75400  	-4204.31442  	0.00456  	0.00003  	0.00423  	0.00436  	0.00567  	0.00000  	0.00000  
60.88024  	23.01758  	5.06696  	5.31131  	15.66745  	-1.18512  	0.01783  	0.36918  	0.35144  	-3.02442  	0.07181  	-0.08579  	-93.20918  	-1.21143  	103.72460  	108.96073  	-15709.32821  	-4204.40619  	0.00456  	0.00002  	0.00423  	0.00434  	0.00568  	0.00000  	0.00000  
61.88159  	23.02211  	5.06742  	5.31076  	15.66828  	-1.18512  	0.01933  	0.36908  	0.35516  	-3.02442  	0.07240  	-0.08563  	-93.25616  	-1.20640  	104.82061  	108.93066  	-15710.38458  	-4204.40046  	0.00457  	0.00003  	0.00423  	0.00437  	0.00568  	0.00000  	0.00000  
62.88291  	23.02307  	5.06772  	5.31057  	15.66817  	-1.18512  	0.01813  	0.37041  	0.35717  	-3.02442  	0.07149  	-0.08569  	-93.26979  	-1.20397  	105.41335  	109.32148  	-15710.55122  	-4204.40805  	0.00457  	0.00003  	0.00423  	0.00435  	0.00568  	0.00000  	0.00000  
63.88523  	23.01783  	5.06815  	5.31153  	15.67012  	-1.18512  	0.01814  	0.36853  	0.36026  	-3.02442  	0.07284  	-0.08569  	-93.17858  	-1.20660  	106.32555  	108.76724  	-15709.90307  	-4204.49045  	0.00458  	0.00003  	0.00423  	0.00435  	0.00567  	0.00000  	0.00000  
64.88655  	23.01890  	5.06784  	5.31243  	15.67007  	-1.18512  	0.01834  	0.36977  	0.35524  	-3.02442  	0.07140  	-0.08564  	-93.19271  	-1.21260  	104.84558  	109.13219  	-15710.10257  	-4204.52679  	0.00457  	0.00003  	0.00423  	0.00435  	0.00568  	0.00000  	0.00000  
65.88987  	23.01950  	5.06840  	5.31216  	15.67163  	-1.18512  	0.01848  	0.37114  	0.35523  	-3.02442  	0.07261  	-0.08568  	-93.18053  	-1.20848  	104.84148  	109.53711  	-15710.53091  	-4204.54346  	0.00457  	0.00003  	0.00423  	0.00435  	0.00569  	0.00000  	0.00000  
66.89318  	23.02549  	5.06857  	5.31216  	15.67312  	-1.18512  	0.01813  	0.37059  	0.35601  	-3.02442  	0.07283  	-0.08571  	-93.23754  	-1.20767  	105.07240  	109.37495  	-15712.00237  	-4204.55391  	0.00457  	0.00003  	0.00423  	0.00435  	0.00568  	0.00000  	0.00000  
67.89451  	23.02237  	5.06800  	5.31231  	15.67515  	-1.18512  	0.01906  	0.37073  	0.35580  	-3.02442  	0.07258  	-0.08568  	-93.17230  	-1.21122  	105.01159  	109.41605  	-15711.78635  	-4204.52875  	0.00457  	0.00003  	0.00423  	0.00437  	0.00568  	0.00000  	0.00000  
68.89782  	23.02419  	5.06811  	5.31257  	15.67760  	-1.18512  	0.01800  	0.37240  	0.35646  	-3.02442  	0.07038  	-0.08566  	-93.16432  	-1.21195  	105.20584  	109.90982  	-15712.62835  	-4204.55117  	0.00457  	0.00003  	0.00423  	0.00435  	0.00569  	0.00000  	0.00000  
69.90114  	23.02304  	5.06850  	5.31292  	15.67858  	-1.18512  	0.01881  	0.37033  	0.35572  	-3.02442  	0.07413  	-0.08574  	-93.13725  	-1.21174  	104.98772  	109.29926  	-15712.59408  	-4204.59520  	0.00457  	0.00003  	0.00424  	0.00436  	0.00568  	0.00000  	0.00000  
70.90255  	23.02525  	5.06810  	5.31231  	15.67931  	-1.18512  	0.01698  	0.36934  	0.35717  	-3.02442  	0.07247  	-0.08569  	-93.15600  	-1.21072  	105.41616  	109.00597  	-15713.17352  	-4204.53505  	0.00457  	0.00003  	0.00423  	0.00433  	0.00568  	0.00000  	0.00000  
71.90589  	23.02829  	5.06785  	5.31270  	15.68157  	-1.18512  	0.01841  	0.36909  	0.35274  	-3.02442  	0.07354  	-0.08571  	-93.16593  	-1.21389  	104.10692  	108.93205  	-15714.21842  	-4204.54288  	0.00456  	0.00003  	0.00424  	0.00435  	0.00568  	0.00000  	0.00000  
72.90920  	23.02791  	5.06754  	5.31247  	15.68370  	-1.18512  	0.01754  	0.36905  	0.35260  	-3.02442  	0.07243  	-0.08570  	-93.13412  	-1.21430  	104.06669  	108.92187  	-15714.56502  	-4204.51096  	0.00456  	0.00003  	0.00423  	0.00434  	0.00568  	0.00000  	0.00000  
73.91053  	23.03046  	5.06728  	5.31226  	15.68449  	-1.18512  	0.01962  	0.36945  	0.35442  	-3.02442  	0.07292  	-0.08574  	-93.15641  	-1.21456  	104.60459  	109.04041  	-15715.22245  	-4204.48280  	0.00457  	0.00003  	0.00423  	0.00438  	0.00568  	0.00000  	0.00000  
74.91385  	23.03158  	5.06746  	5.31161  	15.68490  	-1.18512  	0.01958  	0.36910  	0.35398  	-3.02442  	0.07354  	-0.08569  	-93.16550  	-1.21043  	104.47306  	108.93709  	-15715.52175  	-4204.45444  	0.00457  	0.00003  	0.00424  	0.00438  	0.00568  	0.00000  	0.00000  
75.91617  	23.02123  	5.06710  	5.31021  	15.68578  	-1.18512  	0.01894  	0.36840  	0.35410  	-3.02442  	0.07270  	-0.08566  	-93.02298  	-1.20524  	104.50963  	108.72833  	-15713.65708  	-4204.34855  	0.00457  	0.00003  	0.00423  	0.00436  	0.00567  	0.00000  	0.00000  
76.91646  	23.02579  	5.06693  	5.31021  	15.68608  	-1.18512  	0.01768  	0.36651  	0.35359  	-3.02442  	0.07365  	-0.08569  	-93.07700  	-1.20607  	104.35889  	108.17109  	-15714.61460  	-4204.33856  	0.00457  	0.00003  	0.00424  	0.00434  	0.00566  	0.00000  	0.00000  
77.91878  	23.02708  	5.06741  	5.31021  	15.68625  	-1.18512  	0.01874  	0.36774  	0.35369  	-3.02442  	0.07204  	-0.08578  	-93.09133  	-1.20371  	104.38901  	108.53557  	-15714.90326  	-4204.36710  	0.00457  	0.00002  	0.00423  	0.00436  	0.00567  	0.00000  	0.00000  
78.92212  	23.02320  	5.06721  	5.31055  	15.68715  	-1.18512  	0.01815  	0.36619  	0.35276  	-3.02442  	0.07172  	-0.08569  	-93.03060  	-1.20640  	104.11251  	108.07605  	-15714.31566  	-4204.37617  	0.00456  	0.00003  	0.00423  	0.00435  	0.00566  	0.00000  	0.00000  
79.92346  	23.02255  	5.06618  	5.30975  	15.68707  	-1.18512  	0.02001  	0.36693  	0.34607  	-3.02442  	0.07288  	-0.08575  	-93.02355  	-1.20750  	102.13957  	108.29620  	-15714.17092  	-4204.26632  	0.00455  	0.00002  	0.00423  	0.00438  	0.00567  	0.00000  	0.00000  
80.92578  	23.00492  	5.06597  	5.31009  	15.68669  	-1.18512  	0.01826  	0.36548  	0.35484  	-3.02442  	0.07200  	-0.08565  	-92.80471  	-1.21027  	104.72730  	107.86657  	-15710.62384  	-4204.27355  	0.00457  	0.00003  	0.00423  	0.00435  	0.00566  	0.00000  	0.00000  
81.92910  	22.99576  	5.06686  	5.31031  	15.68724  	-1.18512  	0.01859  	0.36344  	0.35033  	-3.02442  	0.07203  	-0.08573  	-92.68149  	-1.20698  	103.39610  	107.26572  	-15708.92817  	-4204.34048  	0.00456  	0.00003  	0.00423  	0.00436  	0.00565  	0.00000  	0.00000  
82.93044  	22.99164  	5.06726  	5.31066  	15.68594  	-1.18512  	0.01762  	0.36398  	0.34630  	-3.02442  	0.07277  	-0.08566  	-92.64578  	-1.20670  	102.20569  	107.42330  	-15707.85930  	-4204.38574  	0.00455  	0.00003  	0.00423  	0.00434  	0.00565  	0.00000  	0.00000  
83.93177  	22.98187  	5.06725  	5.31196  	15.68507  	-1.18512  	0.01795  	0.36227  	0.35198  	-3.02442  	0.07159  	-0.08574  	-92.53291  	-1.21320  	103.88230  	106.92101  	-15705.76540  	-4204.46280  	0.00456  	0.00003  	0.00423  	0.00434  	0.00564  	0.00000  	0.00000  
84.93309  	22.99623  	5.06766  	5.31173  	15.68507  	-1.18512  	0.01725  	0.36138  	0.34496  	-3.02442  	0.07335  	-0.08568  	-92.71504  	-1.21005  	101.81180  	106.65643  	-15708.59205  	-4204.47354  	0.00455  	0.00003  	0.00423  	0.00433  	0.00564  	0.00000  	0.00000  
85.93641  	23.00826  	5.06732  	5.31183  	15.68344  	-1.18512  	0.01862  	0.36117  	0.34144  	-3.02442  	0.07247  	-0.08575  	-92.88819  	-1.21220  	100.77230  	106.59479  	-15710.64194  	-4204.45956  	0.00455  	0.00002  	0.00423  	0.00436  	0.00564  	0.00000  	0.00000  
86.93821  	23.01015  	5.06785  	5.31202  	15.68147  	-1.18512  	0.01675  	0.35783  	0.34476  	-3.02442  	0.07380  	-0.08568  	-92.93717  	-1.21051  	101.75173  	105.60856  	-15710.62657  	-4204.50290  	0.00455  	0.00003  	0.00424  	0.00432  	0.00562  	0.00000  	0.00000  
87.93854  	23.02377  	5.06805  	5.31227  	15.68038  	-1.18512  	0.01733  	0.36138  	0.34505  	-3.02442  	0.07021  	-0.08574  	-93.12373  	-1.21078  	101.83740  	106.65794  	-15713.09379  	-4204.52917  	0.00455  	0.00003  	0.00422  	0.00433  	0.00564  	0.00000  	0.00000  
88.94085  	23.02420  	5.06730  	5.31172  	15.67835  	-1.18512  	0.01721  	0.36261  	0.35063  	-3.02442  	0.07362  	-0.08565  	-93.15482  	-1.21176  	103.48474  	107.02124  	-15712.77859  	-4204.45154  	0.00456  	0.00003  	0.00424  	0.00433  	0.00565  	0.00000  	0.00000  
89.94420  	23.02622  	5.06656  	5.31142  	15.67694  	-1.18512  	0.01777  	0.36363  	0.34925  	-3.02442  	0.07231  	-0.08570  	-93.19844  	-1.21395  	103.07705  	107.32136  	-15712.89790  	-4204.38924  	0.00456  	0.00003  	0.00423  	0.00434  	0.00565  	0.00000  	0.00000  
90.94586  	23.02744  	5.06832  	5.31244  	15.67504  	-1.18512  	0.01775  	0.36571  	0.35549  	-3.02442  	0.07165  	-0.08568  	-93.23790  	-1.21027  	104.92015  	107.93467  	-15712.76428  	-4204.55509  	0.00457  	0.00003  	0.00423  	0.00434  	0.00566  	0.00000  	0.00000  
91.94932  	23.02660  	5.06879  	5.31156  	15.67424  	-1.18512  	0.01761  	0.36685  	0.35254  	-3.02442  	0.07273  	-0.08567  	-93.23744  	-1.20358  	104.04972  	108.27052  	-15712.44100  	-4204.53104  	0.00456  	0.00003  	0.00423  	0.00434  	0.00567  	0.00000  	0.00000  
92.95061  	23.02797  	5.06807  	5.31270  	15.67390  	-1.18512  	0.01760  	0.36787  	0.35269  	-3.02442  	0.07241  	-0.08575  	-93.25918  	-1.21281  	104.09249  	108.57331  	-15712.64389  	-4204.55631  	0.00456  	0.00002  	0.00423  	0.00434  	0.00567  	0.00000  	0.00000  
93.95296  	23.03023  	5.06798  	5.31259  	15.67300  	-1.18512  	0.01932  	0.36853  	0.35459  	-3.02442  	0.07229  	-0.08577  	-93.29921  	-1.21271  	104.65418  	108.76853  	-15712.91330  	-4204.54473  	0.00457  	0.00002  	0.00423  	0.00437  	0.00567  	0.00000  	0.00000  
94.95625  	23.02826  	5.06789  	5.31216  	15.67357  	-1.18512  	0.01899  	0.36807  	0.35769  	-3.02442  	0.07528  	-0.08569  	-93.26697  	-1.21102  	105.56969  	108.63182  	-15712.63693  	-4204.51269  	0.00457  	0.00003  	0.00424  	0.00436  	0.00567  	0.00000  	0.00000  
95.95560  	23.02847  	5.06869  	5.31285  	15.67416  	-1.18512  	0.01776  	0.37000  	0.35466  	-3.02442  	0.07261  	-0.08565  	-93.26219  	-1.21048  	104.67486  	109.20076  	-15712.79456  	-4204.60273  	0.00457  	0.00003  	0.00423  	0.00434  	0.00568  	0.00000  	0.00000  
96.95792  	23.02814  	5.06755  	5.31219  	15.67482  	-1.18512  	0.01746  	0.36962  	0.35523  	-3.02442  	0.07366  	-0.08570  	-93.24959  	-1.21285  	104.84237  	109.08897  	-15712.85892  	-4204.49456  	0.00457  	0.00003  	0.00424  	0.00434  	0.00568  	0.00000  	0.00000  
97.96123  	23.01971  	5.06732  	5.31053  	15.67634  	-1.18512  	0.01910  	0.37092  	0.35408  	-3.02442  	0.07215  	-0.08569  	-93.12350  	-1.20576  	104.50329  	109.47157  	-15711.49916  	-4204.38106  	0.00457  	0.00003  	0.00423  	0.00437  	0.00568  	0.00000  	0.00000  
98.96258  	23.02474  	5.06726  	5.31044  	15.67881  	-1.18512  	0.01852  	0.37011  	0.35764  	-3.02442  	0.07353  	-0.08567  	-93.15593  	-1.20565  	105.55389  	109.23338  	-15712.97513  	-4204.37229  	0.00457  	0.00003  	0.00424  	0.00436  	0.00568  	0.00000  	0.00000  
99.96490  	23.01791  	5.06697  	5.31069  	15.68040  	-1.18512  	0.01846  	0.37170  	0.35701  	-3.02442  	0.07350  	-0.08570  	-93.04916  	-1.20825  	105.36681  	109.70407  	-15711.94256  	-4204.36983  	0.00457  	0.00003  	0.00424  	0.00435  	0.00569  	0.00000  	0.00000  
100.96822  	23.02270  	5.06711  	5.31066  	15.68195  	-1.18512  	0.01725  	0.37139  	0.35687  	-3.02442  	0.07097  	-0.08567  	-93.09030  	-1.20743  	105.32481  	109.61281  	-15713.19201  	-4204.37610  	0.00457  	0.00003  	0.00423  	0.00433  	0.00569  	0.00000  	0.00000  
101.97011  	23.00551  	5.06698  	5.31097  	15.68361  	-1.18512  	0.01900  	0.37153  	0.35549  	-3.02442  	0.07398  	-0.08571  	-92.85129  	-1.20961  	104.91995  	109.65394  	-15710.13264  	-4204.38725  	0.00457  	0.00003  	0.00424  	0.00436  	0.00569  	0.00000  	0.00000  
102.97146  	23.01372  	5.06898  	5.31223  	15.68679  	-1.18512  	0.02001  	0.37074  	0.35886  	-3.02442  	0.07242  	-0.08567  	-92.91501  	-1.20599  	105.91294  	109.41926  	-15712.37587  	-4204.58257  	0.00457  	0.00003  	0.00423  	0.00438  	0.00568  	0.00000  	0.00000  
103.97378  	23.01445  	5.06820  	5.31249  	15.68720  	-1.18512  	0.01792  	0.36999  	0.35386  	-3.02442  	0.07293  	-0.08569  	-92.91905  	-1.21113  	104.43861  	109.19922  	-15712.59980  	-4204.55109  	0.00457  	0.00003  	0.00423  	0.00434  	0.00568  	0.00000  	0.00000  
104.97609  	23.01254  	5.06839  	5.31241  	15.69009  	-1.18512  	0.01853  	0.37037  	0.35484  	-3.02442  	0.07303  	-0.08573  	-92.85820  	-1.20979  	104.72853  	109.31147  	-15712.79388  	-4204.55829  	0.00457  	0.00003  	0.00423  	0.00436  	0.00568  	0.00000  	0.00000  
105.97787  	23.01395  	5.06944  	5.31279  	15.69059  	-1.18512  	0.01782  	0.36970  	0.35607  	-3.02442  	0.07176  	-0.08567  	-92.86965  	-1.20642  	105.08917  	109.11236  	-15713.17083  	-4204.64384  	0.00457  	0.00003  	0.00423  	0.00434  	0.00568  	0.00000  	0.00000  
106.98125  	23.01699  	5.06919  	5.31311  	15.69212  	-1.18512  	0.01900  	0.36821  	0.35598  	-3.02442  	0.07391  	-0.08567  	-92.88874  	-1.20927  	105.06281  	108.67273  	-15714.07058  	-4204.64766  	0.00457  	0.00003  	0.00424  	0.00436  	0.00567  	0.00000  	0.00000  
107.98259  	23.01353  	5.06890  	5.31357  	15.69355  	-1.18512  	0.01787  	0.36764  	0.35601  	-3.02442  	0.07231  	-0.08563  	-92.82681  	-1.21299  	105.07344  	108.50469  	-15713.67217  	-4204.65772  	0.00457  	0.00003  	0.00423  	0.00434  	0.00567  	0.00000  	0.00000  
108.98588  	23.01665  	5.06908  	5.31487  	15.69430  	-1.18512  	0.01917  	0.36682  	0.35372  	-3.02442  	0.07323  	-0.08573  	-92.85676  	-1.21857  	104.39583  	108.26311  	-15714.43294  	-4204.74716  	0.00457  	0.00003  	0.00423  	0.00437  	0.00567  	0.00000  	0.00000  
109.98922  	23.01323  	5.06991  	5.31573  	15.69549  	-1.18512  	0.01852  	0.36820  	0.34902  	-3.02442  	0.07337  	-0.08574  	-92.79836  	-1.21869  	103.00857  	108.67030  	-15713.99547  	-4204.84829  	0.00456  	0.00003  	0.00423  	0.00436  	0.00567  	0.00000  	0.00000  
110.99071  	23.00831  	5.07073  	5.31555  	15.69614  	-1.18512  	0.01723  	0.36758  	0.35266  	-3.02442  	0.07287  	-0.08566  	-92.72768  	-1.21374  	104.08473  	108.48839  	-15713.15416  	-4204.88662  	0.00456  	0.00003  	0.00423  	0.00433  	0.00567  	0.00000  	0.00000  
111.99403  	23.00509  	5.07024  	5.31598  	15.69644  	-1.18512  	0.01752  	0.36771  	0.35116  	-3.02442  	0.07158  	-0.08572  	-92.68305  	-1.21833  	103.64061  	108.52442  	-15712.57686  	-4204.88267  	0.00456  	0.00003  	0.00423  	0.00434  	0.00567  	0.00000  	0.00000  
112.99734  	23.01203  	5.07000  	5.31669  	15.69636  	-1.18512  	0.01777  	0.36596  	0.35112  	-3.02442  	0.07247  	-0.08567  	-92.77205  	-1.22301  	103.62899  	108.01000  	-15713.92829  	-4204.91100  	0.00456  	0.00003  	0.00423  	0.00434  	0.00566  	0.00000  	0.00000  
