10/23/2024 11:00:59Time	T_hot_in(C)	T_cold_in(C)	T_cold_out(C)	T_hot_out(C)	mdot_cold(kg/s)	ASFASIFUAS(kg/s)	Diferencial_cold(bar)	Diferencial_hot(bar)	mdot_hot(kg/s)	ABS_cold(bar)	ABS_hot(bar)	q_cold(kW)	q_hot(kW)	ASFASYFY	Tau_cold_haste	Re_hot	Re_cold	U_global	PSIG_cold(bar)	R_fouling	PSIG_hot(bar)	PSID_hot(bar)	m_dot_hot	PSID_cold(bar)	m_dot_cold
1.74132  	0.00000  	0.00000  	0.00000  	0.00000  	-1.18512  	-0.20833  	-0.86278  	-2.50000  	-3.02442  	-1.25000  	-0.08628  	-0.00000  	-0.00000  	-737.84722  	-254.63905  	-9234.48090  	-3618.55272  	0.00000  	0.00000  	0.00000  	0.00000  	0.00000  	0.00000  	0.00000  
2.74466  	22.99644  	5.07053  	5.29798  	14.58965  	-1.18512  	0.01292  	0.23006  	0.21853  	-3.02442  	0.07151  	-0.08563  	-106.60927  	-1.12765  	64.49725  	67.90072  	-15493.68243  	-4203.82194  	0.00435  	0.00003  	0.00423  	0.00425  	0.00504  	0.00000  	0.00000  
3.74598  	22.99440  	5.06953  	5.29860  	14.58895  	-1.18512  	0.01321  	0.23125  	0.21474  	-3.02442  	0.07218  	-0.08568  	-106.59231  	-1.13563  	63.37885  	68.25123  	-15493.14434  	-4203.79894  	0.00434  	0.00003  	0.00423  	0.00425  	0.00504  	0.00000  	0.00000  
4.74930  	22.99227  	5.06911  	5.29725  	14.58897  	-1.18512  	0.01245  	0.23073  	0.21516  	-3.02442  	0.07299  	-0.08569  	-106.56515  	-1.13108  	63.50267  	68.09823  	-15492.73365  	-4203.69272  	0.00434  	0.00003  	0.00423  	0.00424  	0.00504  	0.00000  	0.00000  
5.75159  	22.99202  	5.06876  	5.29734  	14.58862  	-1.18512  	0.01376  	0.23077  	0.21436  	-3.02442  	0.07124  	-0.08564  	-106.56640  	-1.13326  	63.26688  	68.10781  	-15492.61699  	-4203.67739  	0.00434  	0.00003  	0.00423  	0.00426  	0.00504  	0.00000  	0.00000  
6.75197  	22.99655  	5.06859  	5.29773  	14.58776  	-1.18512  	0.01348  	0.23033  	0.21251  	-3.02442  	0.07262  	-0.08569  	-106.63466  	-1.13599  	62.72009  	67.97954  	-15493.33399  	-4203.69063  	0.00434  	0.00003  	0.00423  	0.00426  	0.00504  	0.00000  	0.00000  
7.75529  	23.00127  	5.06877  	5.29602  	14.58856  	-1.18512  	0.01460  	0.23030  	0.21115  	-3.02442  	0.07342  	-0.08570  	-106.68437  	-1.12663  	62.31969  	67.96941  	-15494.41222  	-4203.59846  	0.00434  	0.00003  	0.00423  	0.00428  	0.00504  	0.00000  	0.00000  
8.75857  	22.99440  	5.06855  	5.29623  	14.58823  	-1.18512  	0.01335  	0.22896  	0.21050  	-3.02442  	0.07264  	-0.08566  	-106.60151  	-1.12881  	62.12684  	67.57646  	-15493.00597  	-4203.59799  	0.00434  	0.00003  	0.00423  	0.00426  	0.00503  	0.00000  	0.00000  
9.75992  	22.99435  	5.06818  	5.29436  	14.58761  	-1.18512  	0.01342  	0.22930  	0.21289  	-3.02442  	0.07381  	-0.08558  	-106.60877  	-1.12134  	62.83103  	67.67652  	-15492.87404  	-4203.46419  	0.00434  	0.00003  	0.00424  	0.00426  	0.00503  	0.00000  	0.00000  
10.76324  	22.99086  	5.06768  	5.29433  	14.58684  	-1.18512  	0.01486  	0.22959  	0.21568  	-3.02442  	0.07266  	-0.08567  	-106.57424  	-1.12369  	63.65612  	67.76169  	-15492.04059  	-4203.43223  	0.00435  	0.00003  	0.00423  	0.00429  	0.00503  	0.00000  	0.00000  
11.76556  	22.98998  	5.06709  	5.29396  	14.58512  	-1.18512  	0.01358  	0.22788  	0.21288  	-3.02442  	0.07241  	-0.08562  	-106.58494  	-1.12474  	62.82782  	67.25703  	-15491.53209  	-4203.37453  	0.00434  	0.00003  	0.00423  	0.00426  	0.00503  	0.00000  	0.00000  
12.76588  	23.00116  	5.06680  	5.29327  	14.58329  	-1.18512  	0.01288  	0.22797  	0.21369  	-3.02442  	0.07088  	-0.08569  	-106.74999  	-1.12279  	63.06754  	67.28212  	-15493.35902  	-4203.31618  	0.00434  	0.00003  	0.00423  	0.00425  	0.00503  	0.00000  	0.00000  
13.76920  	22.99485  	5.06663  	5.29233  	14.58247  	-1.18512  	0.01235  	0.22752  	0.21234  	-3.02442  	0.07080  	-0.08568  	-106.68038  	-1.11897  	62.67041  	67.14995  	-15491.96693  	-4203.24900  	0.00434  	0.00003  	0.00423  	0.00424  	0.00502  	0.00000  	0.00000  
14.77251  	22.99469  	5.06702  	5.29354  	14.58068  	-1.18512  	0.01345  	0.22727  	0.21272  	-3.02442  	0.07291  	-0.08564  	-106.70095  	-1.12301  	62.78154  	67.07619  	-15491.58523  	-4203.34488  	0.00434  	0.00003  	0.00423  	0.00426  	0.00502  	0.00000  	0.00000  
15.77286  	22.99451  	5.06719  	5.29328  	14.57878  	-1.18512  	0.01394  	0.22668  	0.21315  	-3.02442  	0.07202  	-0.08569  	-106.72290  	-1.12088  	62.90854  	66.90221  	-15491.17880  	-4203.34009  	0.00434  	0.00003  	0.00423  	0.00427  	0.00502  	0.00000  	0.00000  
16.77617  	22.99206  	5.06657  	5.29410  	14.57687  	-1.18512  	0.01344  	0.22801  	0.21768  	-3.02442  	0.07053  	-0.08575  	-106.71599  	-1.12806  	64.24652  	67.29316  	-15490.32568  	-4203.35182  	0.00435  	0.00002  	0.00423  	0.00426  	0.00503  	0.00000  	0.00000  
17.77951  	22.98714  	5.06664  	5.29462  	14.57519  	-1.18512  	0.01335  	0.22960  	0.21212  	-3.02442  	0.07258  	-0.08568  	-106.67486  	-1.13025  	62.60589  	67.76461  	-15489.03563  	-4203.38744  	0.00434  	0.00003  	0.00423  	0.00426  	0.00503  	0.00000  	0.00000  
18.78083  	22.98973  	5.06595  	5.29504  	14.57413  	-1.18512  	0.01381  	0.22947  	0.21944  	-3.02442  	0.07325  	-0.08566  	-106.72109  	-1.13575  	64.76492  	67.72645  	-15489.33608  	-4203.37070  	0.00435  	0.00003  	0.00423  	0.00427  	0.00503  	0.00000  	0.00000  
19.78413  	22.99175  	5.06766  	5.29502  	14.57302  	-1.18512  	0.01390  	0.23210  	0.21860  	-3.02442  	0.07119  	-0.08571  	-106.76088  	-1.12721  	64.51811  	68.50104  	-15489.51382  	-4203.47207  	0.00435  	0.00003  	0.00423  	0.00427  	0.00504  	0.00000  	0.00000  
20.78647  	22.98757  	5.06798  	5.29503  	14.57126  	-1.18512  	0.01367  	0.23237  	0.21708  	-3.02442  	0.07210  	-0.08576  	-106.73012  	-1.12565  	64.06833  	68.58118  	-15488.35077  	-4203.49162  	0.00435  	0.00002  	0.00423  	0.00426  	0.00505  	0.00000  	0.00000  
21.78777  	22.99436  	5.06763  	5.29684  	14.57258  	-1.18512  	0.01497  	0.23224  	0.21622  	-3.02442  	0.07233  	-0.08572  	-106.79947  	-1.13635  	63.81390  	68.54324  	-15489.93845  	-4203.58005  	0.00435  	0.00003  	0.00423  	0.00429  	0.00505  	0.00000  	0.00000  
22.79109  	22.99429  	5.06910  	5.29673  	14.57184  	-1.18512  	0.01442  	0.23326  	0.21610  	-3.02442  	0.07289  	-0.08565  	-106.80797  	-1.12849  	63.77989  	68.84437  	-15489.77912  	-4203.66097  	0.00435  	0.00003  	0.00423  	0.00428  	0.00505  	0.00000  	0.00000  
23.79440  	22.99177  	5.06910  	5.29793  	14.57200  	-1.18512  	0.01318  	0.23251  	0.21482  	-3.02442  	0.07320  	-0.08570  	-106.77397  	-1.13447  	63.40140  	68.62225  	-15489.31848  	-4203.73283  	0.00434  	0.00003  	0.00423  	0.00425  	0.00505  	0.00000  	0.00000  
24.79575  	22.98827  	5.06844  	5.29813  	14.57357  	-1.18512  	0.01442  	0.23284  	0.21670  	-3.02442  	0.07229  	-0.08572  	-106.70962  	-1.13873  	63.95684  	68.72133  	-15488.93981  	-4203.70531  	0.00435  	0.00003  	0.00423  	0.00428  	0.00505  	0.00000  	0.00000  
25.79909  	22.99329  	5.06886  	5.29668  	14.57365  	-1.18512  	0.01379  	0.23337  	0.21755  	-3.02442  	0.07233  	-0.08564  	-106.77234  	-1.12949  	64.20865  	68.87595  	-15489.93714  	-4203.64385  	0.00435  	0.00003  	0.00423  	0.00426  	0.00505  	0.00000  	0.00000  
26.80141  	22.99393  	5.06828  	5.29683  	14.57460  	-1.18512  	0.01481  	0.23274  	0.22035  	-3.02442  	0.07375  	-0.08566  	-106.76834  	-1.13308  	65.03406  	68.68930  	-15490.24780  	-4203.61784  	0.00435  	0.00003  	0.00424  	0.00428  	0.00505  	0.00000  	0.00000  
27.80273  	22.98934  	5.06956  	5.29743  	14.57691  	-1.18512  	0.01307  	0.23300  	0.22110  	-3.02442  	0.07410  	-0.08570  	-106.68091  	-1.12969  	65.25660  	68.76665  	-15489.80245  	-4203.73066  	0.00435  	0.00003  	0.00424  	0.00425  	0.00505  	0.00000  	0.00000  
28.80405  	22.99299  	5.06931  	5.29799  	14.57905  	-1.18512  	0.01364  	0.23376  	0.21944  	-3.02442  	0.07384  	-0.08565  	-106.70008  	-1.13373  	64.76668  	68.99215  	-15490.93485  	-4203.74903  	0.00435  	0.00003  	0.00424  	0.00426  	0.00505  	0.00000  	0.00000  
29.80736  	22.98832  	5.06899  	5.29768  	14.58099  	-1.18512  	0.01345  	0.23356  	0.21624  	-3.02442  	0.07260  	-0.08575  	-106.61621  	-1.13378  	63.82194  	68.93323  	-15490.40030  	-4203.71123  	0.00435  	0.00002  	0.00423  	0.00426  	0.00505  	0.00000  	0.00000  
30.81066  	22.98772  	5.06925  	5.29801  	14.58221  	-1.18512  	0.01285  	0.23241  	0.21859  	-3.02442  	0.07229  	-0.08569  	-106.59306  	-1.13412  	64.51551  	68.59267  	-15490.52289  	-4203.74691  	0.00435  	0.00003  	0.00423  	0.00425  	0.00505  	0.00000  	0.00000  
31.81198  	22.99395  	5.06839  	5.29706  	14.58418  	-1.18512  	0.01412  	0.23182  	0.21866  	-3.02442  	0.07307  	-0.08569  	-106.64711  	-1.13371  	64.53509  	68.41771  	-15492.12377  	-4203.63852  	0.00435  	0.00003  	0.00423  	0.00427  	0.00504  	0.00000  	0.00000  
32.81433  	22.99261  	5.06850  	5.29752  	14.58505  	-1.18512  	0.01351  	0.23184  	0.21548  	-3.02442  	0.07350  	-0.08559  	-106.61910  	-1.13546  	63.59577  	68.42415  	-15492.03402  	-4203.67247  	0.00434  	0.00003  	0.00424  	0.00426  	0.00504  	0.00000  	0.00000  
33.81764  	22.99717  	5.06809  	5.29742  	14.58569  	-1.18512  	0.01359  	0.23239  	0.21628  	-3.02442  	0.07189  	-0.08569  	-106.66877  	-1.13699  	63.83320  	68.58673  	-15493.04938  	-4203.64195  	0.00435  	0.00003  	0.00423  	0.00426  	0.00505  	0.00000  	0.00000  
34.81896  	22.99910  	5.06820  	5.29561  	14.58580  	-1.18512  	0.01350  	0.23238  	0.21597  	-3.02442  	0.07233  	-0.08571  	-106.69184  	-1.12743  	63.73976  	68.58577  	-15493.44888  	-4203.53989  	0.00435  	0.00003  	0.00423  	0.00426  	0.00505  	0.00000  	0.00000  
35.82231  	22.99929  	5.06789  	5.29476  	14.58728  	-1.18512  	0.01282  	0.23115  	0.21790  	-3.02442  	0.07403  	-0.08568  	-106.67564  	-1.12478  	64.31199  	68.22125  	-15493.77637  	-4203.47016  	0.00435  	0.00003  	0.00424  	0.00425  	0.00504  	0.00000  	0.00000  
36.82559  	22.99488  	5.06703  	5.29549  	14.58801  	-1.18512  	0.01335  	0.23088  	0.21603  	-3.02442  	0.07211  	-0.08574  	-106.61037  	-1.13266  	63.75837  	68.14093  	-15493.05593  	-4203.46274  	0.00435  	0.00003  	0.00423  	0.00426  	0.00504  	0.00000  	0.00000  
37.82595  	22.99237  	5.06885  	5.29586  	14.58767  	-1.18512  	0.01365  	0.23102  	0.21707  	-3.02442  	0.07208  	-0.08569  	-106.58277  	-1.12546  	64.06558  	68.18191  	-15492.49895  	-4203.59367  	0.00435  	0.00003  	0.00423  	0.00426  	0.00504  	0.00000  	0.00000  
38.82926  	22.99218  	5.06973  	5.29623  	14.58861  	-1.18512  	0.01505  	0.23173  	0.21332  	-3.02442  	0.07362  	-0.08571  	-106.56850  	-1.12291  	62.95866  	68.39231  	-15492.64635  	-4203.66848  	0.00434  	0.00003  	0.00424  	0.00429  	0.00504  	0.00000  	0.00000  
39.83158  	22.99385  	5.06958  	5.29659  	14.58882  	-1.18512  	0.01311  	0.23023  	0.21410  	-3.02442  	0.07068  	-0.08569  	-106.58709  	-1.12548  	63.19051  	67.94979  	-15493.01344  	-4203.68144  	0.00434  	0.00003  	0.00423  	0.00425  	0.00504  	0.00000  	0.00000  
40.83105  	22.99063  	5.06947  	5.29709  	14.58821  	-1.18512  	0.01484  	0.23089  	0.21435  	-3.02442  	0.07227  	-0.08566  	-106.55391  	-1.12848  	63.26432  	68.14456  	-15492.26512  	-4203.70481  	0.00434  	0.00003  	0.00423  	0.00428  	0.00504  	0.00000  	0.00000  
41.83337  	22.99798  	5.06994  	5.29790  	14.58858  	-1.18512  	0.01423  	0.23083  	0.21280  	-3.02442  	0.07226  	-0.08570  	-106.64241  	-1.13018  	62.80489  	68.12806  	-15493.77159  	-4203.78123  	0.00434  	0.00003  	0.00423  	0.00427  	0.00504  	0.00000  	0.00000  
42.83669  	22.99558  	5.07019  	5.29875  	14.58873  	-1.18512  	0.01441  	0.22903  	0.21126  	-3.02442  	0.07233  	-0.08563  	-106.61006  	-1.13315  	62.35032  	67.59662  	-15493.33481  	-4203.84730  	0.00434  	0.00003  	0.00423  	0.00428  	0.00503  	0.00000  	0.00000  
43.83801  	22.99176  	5.07017  	5.29888  	14.58739  	-1.18512  	0.01436  	0.22937  	0.21248  	-3.02442  	0.07268  	-0.08569  	-106.57858  	-1.13386  	62.71174  	67.69542  	-15492.32602  	-4203.85427  	0.00434  	0.00003  	0.00423  	0.00428  	0.00503  	0.00000  	0.00000  
44.84130  	22.99503  	5.07107  	5.29973  	14.58633  	-1.18512  	0.01269  	0.22754  	0.21341  	-3.02442  	0.07317  	-0.08564  	-106.63348  	-1.13366  	62.98702  	67.15676  	-15492.75585  	-4203.95857  	0.00434  	0.00003  	0.00423  	0.00424  	0.00502  	0.00000  	0.00000  
45.84464  	22.98990  	5.07184  	5.30081  	14.58570  	-1.18512  	0.01449  	0.22960  	0.20798  	-3.02442  	0.07366  	-0.08579  	-106.57633  	-1.13516  	61.38261  	67.76449  	-15491.63097  	-4204.06941  	0.00433  	0.00002  	0.00424  	0.00428  	0.00503  	0.00000  	0.00000  
46.84597  	22.99173  	5.07121  	5.30076  	14.58361  	-1.18512  	0.01302  	0.22718  	0.20968  	-3.02442  	0.07155  	-0.08568  	-106.62607  	-1.13807  	61.88342  	67.05000  	-15491.58117  	-4204.02899  	0.00434  	0.00003  	0.00423  	0.00425  	0.00502  	0.00000  	0.00000  
47.84928  	22.99197  	5.07109  	5.29882  	14.58213  	-1.18512  	0.01383  	0.22754  	0.21441  	-3.02442  	0.07260  	-0.08567  	-106.64788  	-1.12902  	63.27940  	67.15471  	-15491.33678  	-4203.90502  	0.00434  	0.00003  	0.00423  	0.00427  	0.00502  	0.00000  	0.00000  
48.85260  	22.98809  	5.07112  	5.29903  	14.58128  	-1.18512  	0.01203  	0.22739  	0.21193  	-3.02442  	0.07242  	-0.08566  	-106.60960  	-1.12992  	62.54997  	67.11065  	-15490.41297  	-4203.91971  	0.00434  	0.00003  	0.00423  	0.00423  	0.00502  	0.00000  	0.00000  
49.85395  	22.98572  	5.07117  	5.29977  	14.57952  	-1.18512  	0.01334  	0.22909  	0.21181  	-3.02442  	0.07261  	-0.08576  	-106.60174  	-1.13338  	62.51426  	67.61213  	-15489.60638  	-4203.96711  	0.00434  	0.00002  	0.00423  	0.00426  	0.00503  	0.00000  	0.00000  
50.85627  	22.98946  	5.06989  	5.29832  	14.57751  	-1.18512  	0.01370  	0.22968  	0.21513  	-3.02442  	0.07317  	-0.08564  	-106.67464  	-1.13247  	63.49399  	67.78651  	-15489.94293  	-4203.80387  	0.00434  	0.00003  	0.00423  	0.00426  	0.00503  	0.00000  	0.00000  
51.85958  	22.98734  	5.07108  	5.29753  	14.57564  	-1.18512  	0.01393  	0.22962  	0.21567  	-3.02442  	0.07332  	-0.08567  	-106.67152  	-1.12272  	63.65324  	67.76848  	-15489.16338  	-4203.82759  	0.00435  	0.00003  	0.00423  	0.00427  	0.00503  	0.00000  	0.00000  
52.86093  	22.99192  	5.07053  	5.29706  	14.57441  	-1.18512  	0.01355  	0.23118  	0.21427  	-3.02442  	0.07219  	-0.08566  	-106.74529  	-1.12311  	63.23930  	68.22956  	-15489.81780  	-4203.76668  	0.00434  	0.00003  	0.00423  	0.00426  	0.00504  	0.00000  	0.00000  
53.86325  	22.99419  	5.07021  	5.29613  	14.57344  	-1.18512  	0.01412  	0.23174  	0.21715  	-3.02442  	0.07337  	-0.08567  	-106.78634  	-1.12004  	64.08807  	68.39681  	-15490.07204  	-4203.69140  	0.00435  	0.00003  	0.00423  	0.00427  	0.00504  	0.00000  	0.00000  
54.86655  	22.99985  	5.07065  	5.29648  	14.57285  	-1.18512  	0.01525  	0.23176  	0.21309  	-3.02442  	0.07483  	-0.08569  	-106.86557  	-1.11958  	62.88994  	68.40001  	-15491.06311  	-4203.73873  	0.00434  	0.00003  	0.00424  	0.00429  	0.00504  	0.00000  	0.00000  
55.86789  	22.98370  	5.07015  	5.29607  	14.57324  	-1.18512  	0.01376  	0.23267  	0.21796  	-3.02442  	0.07307  	-0.08576  	-106.65580  	-1.12008  	64.32877  	68.66966  	-15487.98262  	-4203.68456  	0.00435  	0.00002  	0.00423  	0.00426  	0.00505  	0.00000  	0.00000  
56.87117  	22.98855  	5.06953  	5.29611  	14.57283  	-1.18512  	0.01265  	0.23227  	0.22026  	-3.02442  	0.07284  	-0.08571  	-106.72259  	-1.12330  	65.00829  	68.55320  	-15488.85143  	-4203.64951  	0.00435  	0.00003  	0.00423  	0.00424  	0.00505  	0.00000  	0.00000  
57.87354  	22.99789  	5.06934  	5.29631  	14.57388  	-1.18512  	0.01400  	0.23328  	0.21744  	-3.02442  	0.07321  	-0.08569  	-106.82771  	-1.12528  	64.17575  	68.84931  	-15490.88287  	-4203.65016  	0.00435  	0.00003  	0.00423  	0.00427  	0.00505  	0.00000  	0.00000  
58.87486  	23.00036  	5.06922  	5.29588  	14.57405  	-1.18512  	0.01405  	0.23252  	0.21603  	-3.02442  	0.07263  	-0.08568  	-106.85690  	-1.12371  	63.75896  	68.62702  	-15491.39935  	-4203.61715  	0.00435  	0.00003  	0.00423  	0.00427  	0.00505  	0.00000  	0.00000  
59.87817  	22.99224  	5.06989  	5.29693  	14.57688  	-1.18512  	0.01489  	0.23156  	0.21679  	-3.02442  	0.07364  	-0.08569  	-106.71797  	-1.12563  	63.98203  	68.34275  	-15490.36472  	-4203.72049  	0.00435  	0.00003  	0.00424  	0.00429  	0.00504  	0.00000  	0.00000  
60.87949  	22.98702  	5.06885  	5.29689  	14.57777  	-1.18512  	0.01366  	0.23406  	0.21686  	-3.02442  	0.07195  	-0.08566  	-106.64053  	-1.13054  	64.00476  	69.07905  	-15489.51620  	-4203.65584  	0.00435  	0.00003  	0.00423  	0.00426  	0.00505  	0.00000  	0.00000  
61.88082  	22.99478  	5.06839  	5.29624  	14.57859  	-1.18512  	0.01244  	0.23311  	0.21449  	-3.02442  	0.07246  	-0.08570  	-106.72858  	-1.12961  	63.30423  	68.79993  	-15491.19465  	-4203.58938  	0.00434  	0.00003  	0.00423  	0.00424  	0.00505  	0.00000  	0.00000  
62.88316  	22.99006  	5.06852  	5.29710  	14.57976  	-1.18512  	0.01297  	0.23280  	0.21932  	-3.02442  	0.07048  	-0.08568  	-106.65387  	-1.13325  	64.72893  	68.70721  	-15490.50019  	-4203.64805  	0.00435  	0.00003  	0.00423  	0.00425  	0.00505  	0.00000  	0.00000  
63.88650  	22.98671  	5.06909  	5.29704  	14.58148  	-1.18512  	0.01441  	0.23280  	0.21918  	-3.02442  	0.07356  	-0.08570  	-106.58959  	-1.13009  	64.68750  	68.70913  	-15490.18130  	-4203.67893  	0.00435  	0.00003  	0.00424  	0.00428  	0.00505  	0.00000  	0.00000  
64.88683  	22.98888  	5.06892  	5.29710  	14.58276  	-1.18512  	0.01402  	0.23284  	0.21640  	-3.02442  	0.07345  	-0.08571  	-106.60077  	-1.13126  	63.86783  	68.72051  	-15490.85641  	-4203.67239  	0.00435  	0.00003  	0.00424  	0.00427  	0.00505  	0.00000  	0.00000  
65.89014  	22.99060  	5.06964  	5.29811  	14.58387  	-1.18512  	0.01370  	0.23182  	0.21760  	-3.02442  	0.07199  	-0.08565  	-106.60853  	-1.13270  	64.22181  	68.41865  	-15491.40923  	-4203.77646  	0.00435  	0.00003  	0.00423  	0.00426  	0.00504  	0.00000  	0.00000  
66.89343  	22.98873  	5.07019  	5.29860  	14.58504  	-1.18512  	0.01465  	0.23272  	0.21647  	-3.02442  	0.07132  	-0.08570  	-106.56994  	-1.13236  	63.88781  	68.68572  	-15491.27362  	-4203.83841  	0.00435  	0.00003  	0.00423  	0.00428  	0.00505  	0.00000  	0.00000  
67.89478  	22.98819  	5.06933  	5.29849  	14.58617  	-1.18512  	0.01333  	0.23093  	0.21747  	-3.02442  	0.07213  	-0.08571  	-106.54873  	-1.13610  	64.18277  	68.15770  	-15491.38747  	-4203.78039  	0.00435  	0.00003  	0.00423  	0.00426  	0.00504  	0.00000  	0.00000  
68.89810  	22.99415  	5.06904  	5.29772  	14.58677  	-1.18512  	0.01400  	0.23119  	0.21570  	-3.02442  	0.07333  	-0.08567  	-106.61688  	-1.13371  	63.66121  	68.23240  	-15492.67140  	-4203.71653  	0.00435  	0.00003  	0.00423  	0.00427  	0.00504  	0.00000  	0.00000  
69.90042  	22.99258  	5.07035  	5.29846  	14.58697  	-1.18512  	0.01451  	0.23205  	0.21465  	-3.02442  	0.07204  	-0.08570  	-106.59433  	-1.13091  	63.35047  	68.48830  	-15492.40195  	-4203.83900  	0.00434  	0.00003  	0.00423  	0.00428  	0.00504  	0.00000  	0.00000  
70.90174  	22.99181  	5.07063  	5.29853  	14.58769  	-1.18512  	0.01390  	0.23158  	0.21648  	-3.02442  	0.07481  	-0.08569  	-106.57548  	-1.12984  	63.89209  	68.34753  	-15492.39359  	-4203.86059  	0.00435  	0.00003  	0.00424  	0.00427  	0.00504  	0.00000  	0.00000  
71.90303  	22.99549  	5.07124  	5.29953  	14.58718  	-1.18512  	0.01413  	0.23159  	0.21467  	-3.02442  	0.07148  	-0.08577  	-106.62841  	-1.13178  	63.35762  	68.35085  	-15493.01310  	-4203.95730  	0.00434  	0.00002  	0.00423  	0.00427  	0.00504  	0.00000  	0.00000  
72.90538  	22.99342  	5.07008  	5.29805  	14.58818  	-1.18512  	0.01309  	0.23126  	0.21576  	-3.02442  	0.07387  	-0.08566  	-106.58959  	-1.13022  	63.67780  	68.25316  	-15492.80311  	-4203.79869  	0.00435  	0.00003  	0.00424  	0.00425  	0.00504  	0.00000  	0.00000  
73.90870  	22.98923  	5.07023  	5.29814  	14.58860  	-1.18512  	0.01333  	0.23109  	0.21156  	-3.02442  	0.07370  	-0.08576  	-106.53112  	-1.12992  	62.43819  	68.20315  	-15492.06565  	-4203.81281  	0.00434  	0.00002  	0.00424  	0.00426  	0.00504  	0.00000  	0.00000  
74.90999  	22.99374  	5.07022  	5.29763  	14.58844  	-1.18512  	0.01290  	0.23022  	0.21266  	-3.02442  	0.07102  	-0.08564  	-106.59030  	-1.12740  	62.76540  	67.94554  	-15492.91702  	-4203.78220  	0.00434  	0.00003  	0.00423  	0.00425  	0.00504  	0.00000  	0.00000  
75.91233  	22.99717  	5.07168  	5.29737  	14.58901  	-1.18512  	0.01373  	0.23058  	0.21502  	-3.02442  	0.07210  	-0.08571  	-106.62669  	-1.11891  	63.46197  	68.05263  	-15493.69780  	-4203.85434  	0.00434  	0.00003  	0.00423  	0.00426  	0.00504  	0.00000  	0.00000  
76.91562  	22.99550  	5.07151  	5.29744  	14.58895  	-1.18512  	0.01423  	0.23033  	0.21338  	-3.02442  	0.07205  	-0.08572  	-106.60618  	-1.12008  	62.97544  	67.97930  	-15493.36136  	-4203.84816  	0.00434  	0.00003  	0.00423  	0.00427  	0.00504  	0.00000  	0.00000  
77.91697  	22.99812  	5.07112  	5.29762  	14.58826  	-1.18512  	0.01276  	0.22938  	0.21737  	-3.02442  	0.07224  	-0.08571  	-106.64817  	-1.12296  	64.15372  	67.69804  	-15493.73882  	-4203.83534  	0.00435  	0.00003  	0.00423  	0.00424  	0.00503  	0.00000  	0.00000  
78.92029  	22.99624  	5.07073  	5.29652  	14.58756  	-1.18512  	0.01345  	0.23108  	0.21221  	-3.02442  	0.07323  	-0.08569  	-106.63330  	-1.11942  	62.63012  	68.20083  	-15493.23362  	-4203.74589  	0.00434  	0.00003  	0.00423  	0.00426  	0.00504  	0.00000  	0.00000  
79.92358  	22.99902  	5.07114  	5.29600  	14.58751  	-1.18512  	0.01362  	0.22857  	0.21511  	-3.02442  	0.07184  	-0.08563  	-106.66920  	-1.11478  	63.48695  	67.46011  	-15493.76735  	-4203.73956  	0.00434  	0.00003  	0.00423  	0.00426  	0.00503  	0.00000  	0.00000  
80.92493  	22.99308  	5.07047  	5.29580  	14.58710  	-1.18512  	0.01291  	0.22913  	0.21181  	-3.02442  	0.07114  	-0.08568  	-106.59899  	-1.11712  	62.51269  	67.62433  	-15492.52581  	-4203.68702  	0.00434  	0.00003  	0.00423  	0.00425  	0.00503  	0.00000  	0.00000  
81.92725  	22.99904  	5.07089  	5.29495  	14.58620  	-1.18512  	0.01389  	0.22773  	0.21357  	-3.02442  	0.07212  	-0.08568  	-106.68616  	-1.11082  	63.03180  	67.21086  	-15493.51477  	-4203.66179  	0.00434  	0.00003  	0.00423  	0.00427  	0.00502  	0.00000  	0.00000  
82.92959  	22.99431  	5.07034  	5.29620  	14.58530  	-1.18512  	0.01364  	0.22748  	0.20754  	-3.02442  	0.07558  	-0.08570  	-106.63743  	-1.11974  	61.25434  	67.13900  	-15492.41362  	-4203.70318  	0.00433  	0.00003  	0.00424  	0.00426  	0.00502  	0.00000  	0.00000  
83.93091  	22.99820  	5.07057  	5.29707  	14.58418  	-1.18512  	0.01387  	0.22805  	0.20961  	-3.02442  	0.07172  	-0.08575  	-106.70102  	-1.12291  	61.86297  	67.30785  	-15492.95602  	-4203.76930  	0.00434  	0.00002  	0.00423  	0.00427  	0.00503  	0.00000  	0.00000  
84.93423  	22.99760  	5.07036  	5.29725  	14.58181  	-1.18512  	0.01422  	0.22756  	0.21013  	-3.02442  	0.07234  	-0.08565  	-106.72349  	-1.12485  	62.01706  	67.16118  	-15492.37582  	-4203.76793  	0.00434  	0.00003  	0.00423  	0.00427  	0.00502  	0.00000  	0.00000  
85.93752  	22.99093  	5.07093  	5.29721  	14.57996  	-1.18512  	0.01502  	0.23051  	0.21180  	-3.02442  	0.07167  	-0.08569  	-106.66225  	-1.12185  	62.51094  	68.03326  	-15490.70979  	-4203.79969  	0.00434  	0.00003  	0.00423  	0.00429  	0.00504  	0.00000  	0.00000  
86.93887  	22.99811  	5.07070  	5.29792  	14.57774  	-1.18512  	0.01302  	0.22965  	0.21601  	-3.02442  	0.07142  	-0.08569  	-106.78149  	-1.12651  	63.75345  	67.77872  	-15491.67941  	-4203.82823  	0.00435  	0.00003  	0.00423  	0.00425  	0.00503  	0.00000  	0.00000  
87.94119  	22.99664  	5.06965  	5.29797  	14.57727  	-1.18512  	0.01430  	0.23176  	0.21205  	-3.02442  	0.07187  	-0.08567  	-106.76883  	-1.13195  	62.58546  	68.40001  	-15491.30174  	-4203.76814  	0.00434  	0.00003  	0.00423  	0.00427  	0.00504  	0.00000  	0.00000  
88.94450  	22.99555  	5.06931  	5.29689  	14.57627  	-1.18512  	0.01316  	0.23128  	0.21647  	-3.02442  	0.07217  	-0.08567  	-106.76781  	-1.12829  	63.88991  	68.25953  	-15490.89185  	-4203.68321  	0.00435  	0.00003  	0.00423  	0.00425  	0.00504  	0.00000  	0.00000  
89.94582  	22.99314  	5.06961  	5.29661  	14.57561  	-1.18512  	0.01420  	0.23154  	0.21659  	-3.02442  	0.07282  	-0.08565  	-106.74552  	-1.12541  	63.92418  	68.33684  	-15490.29271  	-4203.68477  	0.00435  	0.00003  	0.00423  	0.00427  	0.00504  	0.00000  	0.00000  
90.94914  	22.99786  	5.06892  	5.29596  	14.57561  	-1.18512  	0.01359  	0.23149  	0.21337  	-3.02442  	0.07301  	-0.08568  	-106.80545  	-1.12562  	62.97511  	68.32213  	-15491.21486  	-4203.60375  	0.00434  	0.00003  	0.00423  	0.00426  	0.00504  	0.00000  	0.00000  
91.95246  	22.99449  	5.06843  	5.29669  	14.57529  	-1.18512  	0.01428  	0.23295  	0.21524  	-3.02442  	0.07190  	-0.08567  	-106.76679  	-1.13167  	63.52606  	68.75207  	-15490.49313  	-4203.61845  	0.00434  	0.00003  	0.00423  	0.00427  	0.00505  	0.00000  	0.00000  
92.95378  	22.99701  	5.06955  	5.29699  	14.57642  	-1.18512  	0.01361  	0.23372  	0.21614  	-3.02442  	0.07502  	-0.08569  	-106.78440  	-1.12756  	63.79260  	68.97849  	-15491.20582  	-4203.70349  	0.00435  	0.00003  	0.00424  	0.00426  	0.00505  	0.00000  	0.00000  
93.95610  	22.99638  	5.06951  	5.29727  	14.57628  	-1.18512  	0.01306  	0.23287  	0.21545  	-3.02442  	0.07114  	-0.08569  	-106.77815  	-1.12916  	63.58813  	68.72879  	-15491.05480  	-4203.71842  	0.00434  	0.00003  	0.00423  	0.00425  	0.00505  	0.00000  	0.00000  
94.95842  	22.99612  	5.07009  	5.29766  	14.57776  	-1.18512  	0.01513  	0.23449  	0.21959  	-3.02442  	0.07301  	-0.08569  	-106.75603  	-1.12821  	64.81085  	69.20797  	-15491.29618  	-4203.77582  	0.00435  	0.00003  	0.00423  	0.00429  	0.00506  	0.00000  	0.00000  
95.95973  	22.99560  	5.06942  	5.29626  	14.57798  	-1.18512  	0.01453  	0.23421  	0.21739  	-3.02442  	0.07174  	-0.08570  	-106.74668  	-1.12462  	64.15899  	69.12557  	-15491.23448  	-4203.65210  	0.00435  	0.00003  	0.00423  	0.00428  	0.00505  	0.00000  	0.00000  
96.96206  	22.99466  	5.06916  	5.29637  	14.57967  	-1.18512  	0.01486  	0.23371  	0.21679  	-3.02442  	0.07208  	-0.08568  	-106.71339  	-1.12644  	63.98260  	68.97788  	-15491.38332  	-4203.64327  	0.00435  	0.00003  	0.00423  	0.00429  	0.00505  	0.00000  	0.00000  
97.96538  	22.99847  	5.06869  	5.29630  	14.58062  	-1.18512  	0.01402  	0.23316  	0.21471  	-3.02442  	0.07382  	-0.08566  	-106.74962  	-1.12841  	63.36940  	68.81376  	-15492.31351  	-4203.61064  	0.00434  	0.00003  	0.00424  	0.00427  	0.00505  	0.00000  	0.00000  
98.96672  	22.99373  	5.06835  	5.29526  	14.58175  	-1.18512  	0.01353  	0.23227  	0.21678  	-3.02442  	0.07363  	-0.08574  	-106.67527  	-1.12494  	63.98061  	68.55336  	-15491.60689  	-4203.52809  	0.00435  	0.00003  	0.00424  	0.00426  	0.00505  	0.00000  	0.00000  
99.96901  	22.99537  	5.06911  	5.29613  	14.58381  	-1.18512  	0.01557  	0.23300  	0.21111  	-3.02442  	0.07271  	-0.08577  	-106.66981  	-1.12549  	62.30646  	68.76815  	-15492.33006  	-4203.62588  	0.00434  	0.00002  	0.00423  	0.00430  	0.00505  	0.00000  	0.00000  
100.97233  	22.99379  	5.06856  	5.29662  	14.58414  	-1.18512  	0.01375  	0.23149  	0.21633  	-3.02442  	0.07244  	-0.08567  	-106.64568  	-1.13070  	63.84669  	68.32089  	-15492.08617  	-4203.62204  	0.00435  	0.00003  	0.00423  	0.00426  	0.00504  	0.00000  	0.00000  
101.97368  	23.00116  	5.06904  	5.29600  	14.58477  	-1.18512  	0.01591  	0.23246  	0.21520  	-3.02442  	0.07346  	-0.08575  	-106.73105  	-1.12521  	63.51342  	68.60902  	-15493.65060  	-4203.61342  	0.00434  	0.00002  	0.00424  	0.00431  	0.00505  	0.00000  	0.00000  
102.97400  	23.00213  	5.06901  	5.29768  	14.58653  	-1.18512  	0.01304  	0.23310  	0.21490  	-3.02442  	0.07352  	-0.08572  	-106.72101  	-1.13368  	63.42569  	68.79672  	-15494.18485  	-4203.71247  	0.00434  	0.00003  	0.00424  	0.00425  	0.00505  	0.00000  	0.00000  
103.97731  	22.99304  	5.06918  	5.29780  	14.58666  	-1.18512  	0.01342  	0.23178  	0.21742  	-3.02442  	0.07252  	-0.08570  	-106.60404  	-1.13344  	64.16763  	68.40757  	-15492.43163  	-4203.72935  	0.00435  	0.00003  	0.00423  	0.00426  	0.00504  	0.00000  	0.00000  
104.97964  	22.99204  	5.07061  	5.29775  	14.58728  	-1.18512  	0.01290  	0.23270  	0.21110  	-3.02442  	0.07199  	-0.08575  	-106.58362  	-1.12609  	62.30447  	68.67899  	-15492.35824  	-4203.81233  	0.00434  	0.00002  	0.00423  	0.00425  	0.00505  	0.00000  	0.00000  
105.97996  	22.99800  	5.07042  	5.29911  	14.58789  	-1.18512  	0.01311  	0.23150  	0.21649  	-3.02442  	0.07222  	-0.08568  	-106.65138  	-1.13378  	63.89385  	68.32525  	-15493.64272  	-4203.88325  	0.00435  	0.00003  	0.00423  	0.00425  	0.00504  	0.00000  	0.00000  
106.98328  	22.99819  	5.06904  	5.29823  	14.58736  	-1.18512  	0.01305  	0.23147  	0.21342  	-3.02442  	0.07364  	-0.08569  	-106.66057  	-1.13627  	62.98798  	68.31707  	-15493.57481  	-4203.74708  	0.00434  	0.00003  	0.00424  	0.00425  	0.00504  	0.00000  	0.00000  
107.98656  	22.99461  	5.07024  	5.29766  	14.58777  	-1.18512  	0.01306  	0.23226  	0.21296  	-3.02442  	0.07306  	-0.08569  	-106.60993  	-1.12749  	62.85147  	68.54920  	-15492.95549  	-4203.78503  	0.00434  	0.00003  	0.00423  	0.00425  	0.00505  	0.00000  	0.00000  
108.98789  	22.99585  	5.06984  	5.29761  	14.58851  	-1.18512  	0.01350  	0.23091  	0.21222  	-3.02442  	0.07307  	-0.08571  	-106.61629  	-1.12920  	62.63349  	68.15124  	-15493.34422  	-4203.75822  	0.00434  	0.00003  	0.00423  	0.00426  	0.00504  	0.00000  	0.00000  
109.99120  	22.99865  	5.06988  	5.29786  	14.58935  	-1.18512  	0.01343  	0.23049  	0.21750  	-3.02442  	0.07010  	-0.08570  	-106.64124  	-1.13028  	64.19160  	68.02802  	-15494.05517  	-4203.77508  	0.00435  	0.00003  	0.00422  	0.00426  	0.00504  	0.00000  	0.00000  
110.99452  	22.99879  	5.06914  	5.29766  	14.58769  	-1.18512  	0.01428  	0.22963  	0.21592  	-3.02442  	0.07279  	-0.08569  	-106.66403  	-1.13295  	63.72741  	67.77224  	-15493.75861  	-4203.71928  	0.00435  	0.00003  	0.00423  	0.00427  	0.00503  	0.00000  	0.00000  
111.99584  	22.99720  	5.06868  	5.29700  	14.58811  	-1.18512  	0.01505  	0.23123  	0.21393  	-3.02442  	0.07417  	-0.08568  	-106.63857  	-1.13195  	63.13848  	68.24640  	-15493.52994  	-4203.65202  	0.00434  	0.00003  	0.00424  	0.00429  	0.00504  	0.00000  	0.00000  
112.99918  	22.99583  	5.06907  	5.29608  	14.58745  	-1.18512  	0.01286  	0.22980  	0.21537  	-3.02442  	0.07102  	-0.08568  	-106.62951  	-1.12545  	63.56488  	67.82383  	-15493.13286  	-4203.62058  	0.00434  	0.00003  	0.00423  	0.00425  	0.00503  	0.00000  	0.00000  
114.00050  	23.00189  	5.06951  	5.29674  	14.58636  	-1.18512  	0.01399  	0.22986  	0.21232  	-3.02442  	0.07436  	-0.08571  	-106.72010  	-1.12656  	62.66507  	67.84001  	-15494.10341  	-4203.68627  	0.00434  	0.00003  	0.00424  	0.00427  	0.00503  	0.00000  	0.00000  
115.00133  	23.00326  	5.06926  	5.29597  	14.58569  	-1.18512  	0.01312  	0.22973  	0.21098  	-3.02442  	0.07320  	-0.08571  	-106.74603  	-1.12399  	62.26952  	67.80268  	-15494.23956  	-4203.62538  	0.00434  	0.00003  	0.00423  	0.00425  	0.00503  	0.00000  	0.00000  
116.00465  	22.99668  	5.06947  	5.29712  	14.58597  	-1.18512  	0.01416  	0.22927  	0.21713  	-3.02442  	0.07281  	-0.08570  	-106.65900  	-1.12865  	64.08426  	67.66525  	-15493.00876  	-4203.70654  	0.00435  	0.00003  	0.00423  	0.00427  	0.00503  	0.00000  	0.00000  
117.00594  	22.99782  	5.06868  	5.29723  	14.58524  	-1.18512  	0.01426  	0.22977  	0.21160  	-3.02442  	0.07311  	-0.08571  	-106.68280  	-1.13312  	62.45209  	67.81514  	-15493.09013  	-4203.66593  	0.00434  	0.00003  	0.00423  	0.00427  	0.00503  	0.00000  	0.00000  
118.00928  	22.99649  	5.06857  	5.29753  	14.58429  	-1.18512  	0.01347  	0.22856  	0.20923  	-3.02442  	0.07186  	-0.08567  	-106.67791  	-1.13509  	61.75309  	67.45839  	-15492.64342  	-4203.67709  	0.00433  	0.00003  	0.00423  	0.00426  	0.00503  	0.00000  	0.00000  
119.01258  	22.99642  	5.06864  	5.29601  	14.58343  	-1.18512  	0.01452  	0.22802  	0.20972  	-3.02442  	0.07233  	-0.08568  	-106.68802  	-1.12723  	61.89746  	67.29798  	-15492.45996  	-4203.59013  	0.00434  	0.00003  	0.00423  	0.00428  	0.00503  	0.00000  	0.00000  
120.01392  	22.99886  	5.06809  	5.29590  	14.58103  	-1.18512  	0.01268  	0.22709  	0.21063  	-3.02442  	0.07183  	-0.08571  	-106.74940  	-1.12942  	62.16526  	67.02413  	-15492.46789  	-4203.55058  	0.00434  	0.00003  	0.00423  	0.00424  	0.00502  	0.00000  	0.00000  
121.01724  	22.99565  	5.06827  	5.29555  	14.57941  	-1.18512  	0.01344  	0.22700  	0.20971  	-3.02442  	0.07212  	-0.08572  	-106.72928  	-1.12679  	61.89331  	66.99580  	-15491.52588  	-4203.54064  	0.00434  	0.00003  	0.00423  	0.00426  	0.00502  	0.00000  	0.00000  
122.02053  	22.99672  	5.06870  	5.29536  	14.57693  	-1.18512  	0.01343  	0.22825  	0.21061  	-3.02442  	0.07254  	-0.08570  	-106.77425  	-1.12371  	62.15838  	67.36691  	-15491.25055  	-4203.55462  	0.00434  	0.00003  	0.00423  	0.00426  	0.00503  	0.00000  	0.00000  
123.02191  	22.99534  	5.06856  	5.29488  	14.57472  	-1.18512  	0.01440  	0.22971  	0.21563  	-3.02442  	0.07239  	-0.08570  	-106.78480  	-1.12205  	63.64071  	67.79542  	-15490.54687  	-4203.51743  	0.00435  	0.00003  	0.00423  	0.00428  	0.00503  	0.00000  	0.00000  
124.02519  	22.99859  	5.06881  	5.29429  	14.57320  	-1.18512  	0.01305  	0.23038  	0.21093  	-3.02442  	0.07372  	-0.08566  	-106.84523  	-1.11786  	62.25367  	67.99317  	-15490.88574  	-4203.49695  	0.00434  	0.00003  	0.00424  	0.00425  	0.00504  	0.00000  	0.00000  
125.02855  	23.00230  	5.06914  	5.29536  	14.57225  	-1.18512  	0.01449  	0.23116  	0.21540  	-3.02442  	0.07202  	-0.08569  	-106.90434  	-1.12152  	63.57338  	68.22285  	-15491.42381  	-4203.58154  	0.00434  	0.00003  	0.00423  	0.00428  	0.00504  	0.00000  	0.00000  
126.02989  	23.00210  	5.06946  	5.29542  	14.57169  	-1.18512  	0.01414  	0.23268  	0.21486  	-3.02442  	0.07241  	-0.08570  	-106.90887  	-1.12027  	63.41355  	68.67167  	-15491.27763  	-4203.60434  	0.00434  	0.00003  	0.00423  	0.00427  	0.00505  	0.00000  	0.00000  
127.03323  	23.00763  	5.06920  	5.29591  	14.57068  	-1.18512  	0.01385  	0.23216  	0.21731  	-3.02442  	0.07276  	-0.08562  	-106.99191  	-1.12393  	64.13744  	68.52030  	-15492.16003  	-4203.61783  	0.00435  	0.00003  	0.00423  	0.00427  	0.00504  	0.00000  	0.00000  
128.03555  	23.00521  	5.06936  	5.29570  	14.57062  	-1.18512  	0.01539  	0.23291  	0.21719  	-3.02442  	0.07247  	-0.08572  	-106.96190  	-1.12213  	64.10053  	68.74106  	-15491.67617  	-4203.61520  	0.00435  	0.00003  	0.00423  	0.00430  	0.00505  	0.00000  	0.00000  
129.03689  	23.00327  	5.06921  	5.29668  	14.57062  	-1.18512  	0.01280  	0.23221  	0.21916  	-3.02442  	0.07295  	-0.08574  	-106.93723  	-1.12772  	64.68336  	68.53471  	-15491.29612  	-4203.66426  	0.00435  	0.00003  	0.00423  	0.00425  	0.00505  	0.00000  	0.00000  
130.04021  	23.00050  	5.06866  	5.29687  	14.57181  	-1.18512  	0.01383  	0.23349  	0.22159  	-3.02442  	0.07444  	-0.08575  	-106.88704  	-1.13144  	65.39913  	68.91207  	-15490.98631  	-4203.64317  	0.00435  	0.00002  	0.00424  	0.00427  	0.00505  	0.00000  	0.00000  
131.04253  	23.00026  	5.07037  	5.29769  	14.57401  	-1.18512  	0.01385  	0.23283  	0.21638  	-3.02442  	0.07248  	-0.08573  	-106.85605  	-1.12697  	63.86134  	68.71801  	-15491.37106  	-4203.79472  	0.00435  	0.00003  	0.00423  	0.00427  	0.00505  	0.00000  	0.00000  
132.04385  	23.00096  	5.06843  	5.29733  	14.57443  	-1.18512  	0.01399  	0.23333  	0.21980  	-3.02442  	0.07351  	-0.08573  	-106.85963  	-1.13480  	64.87143  	68.86599  	-15491.58962  	-4203.65720  	0.00435  	0.00003  	0.00424  	0.00427  	0.00505  	0.00000  	0.00000  
133.04719  	23.00221  	5.06807  	5.29701  	14.57468  	-1.18512  	0.01404  	0.23394  	0.21635  	-3.02442  	0.07225  	-0.08562  	-106.87233  	-1.13503  	63.85197  	69.04596  	-15491.88209  	-4203.61593  	0.00435  	0.00003  	0.00423  	0.00427  	0.00505  	0.00000  	0.00000  
134.05048  	23.00132  	5.06899  	5.29638  	14.57577  	-1.18512  	0.01334  	0.23517  	0.21639  	-3.02442  	0.07316  	-0.08576  	-106.84727  	-1.12733  	63.86612  	69.40749  	-15491.92141  	-4203.63303  	0.00435  	0.00002  	0.00423  	0.00426  	0.00506  	0.00000  	0.00000  
135.05183  	22.99878  	5.06842  	5.29581  	14.57773  	-1.18512  	0.01479  	0.23398  	0.21946  	-3.02442  	0.07207  	-0.08573  	-106.79028  	-1.12732  	64.77010  	69.05571  	-15491.80897  	-4203.56518  	0.00435  	0.00003  	0.00423  	0.00428  	0.00505  	0.00000  	0.00000  
136.05415  	22.99869  	5.06828  	5.29571  	14.57845  	-1.18512  	0.01360  	0.23360  	0.21879  	-3.02442  	0.07055  	-0.08572  	-106.77999  	-1.12754  	64.57263  	68.94430  	-15491.93183  	-4203.55077  	0.00435  	0.00003  	0.00423  	0.00426  	0.00505  	0.00000  	0.00000  
137.05746  	22.99941  	5.06756  	5.29644  	14.58042  	-1.18512  	0.01345  	0.23303  	0.21421  	-3.02442  	0.07374  	-0.08567  	-106.76404  	-1.13470  	63.22101  	68.77582  	-15492.45848  	-4203.55127  	0.00434  	0.00003  	0.00424  	0.00426  	0.00505  	0.00000  	0.00000  
138.05878  	22.99856  	5.06753  	5.29688  	14.58177  	-1.18512  	0.01322  	0.23237  	0.21532  	-3.02442  	0.07101  	-0.08568  	-106.73621  	-1.13708  	63.55059  	68.58039  	-15492.55632  	-4203.57576  	0.00434  	0.00003  	0.00423  	0.00425  	0.00505  	0.00000  	0.00000  
139.06210  	23.00272  	5.06743  	5.29608  	14.58376  	-1.18512  	0.01496  	0.23249  	0.21882  	-3.02442  	0.07177  	-0.08563  	-106.76381  	-1.13363  	64.58178  	68.61766  	-15493.75805  	-4203.52195  	0.00435  	0.00003  	0.00423  	0.00429  	0.00505  	0.00000  	0.00000  
140.06542  	22.99941  	5.06705  	5.29443  	14.58356  	-1.18512  	0.01373  	0.23180  	0.21604  	-3.02442  	0.07316  	-0.08573  	-106.72429  	-1.12729  	63.76221  	68.41328  	-15493.07127  	-4203.40093  	0.00435  	0.00003  	0.00423  	0.00426  	0.00504  	0.00000  	0.00000  
141.06674  	22.99785  	5.06704  	5.29453  	14.58418  	-1.18512  	0.01429  	0.23259  	0.21274  	-3.02442  	0.07250  	-0.08569  	-106.69668  	-1.12784  	62.78876  	68.64783  	-15492.88641  	-4203.40627  	0.00434  	0.00003  	0.00423  	0.00427  	0.00505  	0.00000  	0.00000  
142.06903  	23.00202  	5.06669  	5.29339  	14.58583  	-1.18512  	0.01376  	0.23165  	0.21519  	-3.02442  	0.07549  	-0.08573  	-106.72864  	-1.12392  	63.51065  	68.36830  	-15494.02630  	-4203.31665  	0.00434  	0.00003  	0.00424  	0.00426  	0.00504  	0.00000  	0.00000  
143.07238  	23.00400  	5.06693  	5.29339  	14.58555  	-1.18512  	0.01505  	0.23231  	0.21299  	-3.02442  	0.07193  	-0.08569  	-106.75733  	-1.12271  	62.86064  	68.56414  	-15494.35708  	-4203.33075  	0.00434  	0.00003  	0.00423  	0.00429  	0.00505  	0.00000  	0.00000  
144.07372  	22.99956  	5.06607  	5.29415  	14.58580  	-1.18512  	0.01361  	0.23242  	0.21318  	-3.02442  	0.07397  	-0.08570  	-106.69782  	-1.13074  	62.91763  	68.59722  	-15493.53919  	-4203.32452  	0.00434  	0.00003  	0.00424  	0.00426  	0.00505  	0.00000  	0.00000  
145.07504  	22.99571  	5.06607  	5.29404  	14.58551  	-1.18512  	0.01416  	0.23118  	0.21506  	-3.02442  	0.07098  	-0.08568  	-106.65267  	-1.13017  	63.47222  	68.23146  	-15492.72906  	-4203.31824  	0.00434  	0.00003  	0.00423  	0.00427  	0.00504  	0.00000  	0.00000  
146.07836  	22.99432  	5.06595  	5.29374  	14.58655  	-1.18512  	0.01428  	0.23110  	0.21696  	-3.02442  	0.07377  	-0.08571  	-106.62187  	-1.12934  	64.03450  	68.20730  	-15492.66183  	-4203.29320  	0.00435  	0.00003  	0.00424  	0.00427  	0.00504  	0.00000  	0.00000  
147.08067  	22.99837  	5.06677  	5.29422  	14.58650  	-1.18512  	0.01357  	0.23040  	0.21431  	-3.02442  	0.07236  	-0.08572  	-106.67385  	-1.12765  	63.25155  	68.00059  	-15493.44168  	-4203.37141  	0.00434  	0.00003  	0.00423  	0.00426  	0.00504  	0.00000  	0.00000  
148.08200  	22.99850  	5.06653  	5.29392  	14.58687  	-1.18512  	0.01362  	0.23083  	0.21649  	-3.02442  	0.07251  	-0.08561  	-106.67091  	-1.12735  	63.89508  	68.12776  	-15493.53969  	-4203.33871  	0.00435  	0.00003  	0.00423  	0.00426  	0.00504  	0.00000  	0.00000  
149.08529  	22.99268  	5.06625  	5.29420  	14.58631  	-1.18512  	0.01421  	0.23014  	0.21537  	-3.02442  	0.07305  	-0.08570  	-106.60408  	-1.13008  	63.56491  	67.92417  	-15492.29282  	-4203.33864  	0.00434  	0.00003  	0.00423  	0.00427  	0.00504  	0.00000  	0.00000  
150.08863  	22.99275  	5.06681  	5.29494  	14.58496  	-1.18512  	0.01384  	0.23132  	0.21463  	-3.02442  	0.07327  	-0.08567  	-106.62203  	-1.13101  	63.34574  	68.27195  	-15492.04295  	-4203.41642  	0.00434  	0.00003  	0.00423  	0.00427  	0.00504  	0.00000  	0.00000  
151.08993  	22.99032  	5.06708  	5.29606  	14.58487  	-1.18512  	0.01342  	0.22993  	0.21104  	-3.02442  	0.07107  	-0.08571  	-106.59247  	-1.13519  	62.28541  	67.86006  	-15491.55002  	-4203.49971  	0.00434  	0.00003  	0.00423  	0.00426  	0.00503  	0.00000  	0.00000  
152.09329  	22.99473  	5.06783  	5.29588  	14.58433  	-1.18512  	0.01310  	0.23033  	0.21521  	-3.02442  	0.07218  	-0.08571  	-106.65521  	-1.13064  	63.51778  	67.97967  	-15492.30629  	-4203.53377  	0.00434  	0.00003  	0.00423  	0.00425  	0.00504  	0.00000  	0.00000  
153.09658  	22.99281  	5.06780  	5.29634  	14.58385  	-1.18512  	0.01298  	0.22896  	0.21371  	-3.02442  	0.07366  	-0.08570  	-106.63691  	-1.13305  	63.07459  	67.57626  	-15491.83653  	-4203.55946  	0.00434  	0.00003  	0.00424  	0.00425  	0.00503  	0.00000  	0.00000  
154.09790  	22.98708  	5.06719  	5.29584  	14.58324  	-1.18512  	0.01421  	0.23028  	0.20971  	-3.02442  	0.07292  	-0.08564  	-106.57193  	-1.13360  	61.89255  	67.96362  	-15490.59828  	-4203.49333  	0.00434  	0.00003  	0.00423  	0.00427  	0.00504  	0.00000  	0.00000  
155.10022  	22.99105  	5.06676  	5.29625  	14.58281  	-1.18512  	0.01373  	0.22775  	0.21190  	-3.02442  	0.07261  	-0.08567  	-106.62774  	-1.13775  	62.53975  	67.21662  	-15491.29046  	-4203.49215  	0.00434  	0.00003  	0.00423  	0.00426  	0.00502  	0.00000  	0.00000  
156.10356  	22.98793  	5.06780  	5.29751  	14.58149  	-1.18512  	0.01325  	0.22792  	0.20908  	-3.02442  	0.07168  	-0.08577  	-106.60501  	-1.13885  	61.70759  	67.26677  	-15490.42259  	-4203.62966  	0.00433  	0.00002  	0.00423  	0.00425  	0.00503  	0.00000  	0.00000  
157.10486  	22.99708  	5.06786  	5.29751  	14.57949  	-1.18512  	0.01393  	0.22849  	0.20988  	-3.02442  	0.07211  	-0.08564  	-106.74629  	-1.13856  	61.94330  	67.43580  	-15491.81929  	-4203.63362  	0.00434  	0.00003  	0.00423  	0.00427  	0.00503  	0.00000  	0.00000  
158.10821  	22.99513  	5.06730  	5.29648  	14.57857  	-1.18512  	0.01254  	0.22574  	0.21516  	-3.02442  	0.07299  	-0.08563  	-106.73326  	-1.13621  	63.50093  	66.62422  	-15491.26049  	-4203.53809  	0.00434  	0.00003  	0.00423  	0.00424  	0.00502  	0.00000  	0.00000  
159.11152  	23.00349  	5.06823  	5.29537  	14.57765  	-1.18512  	0.01415  	0.22670  	0.20943  	-3.02442  	0.07192  	-0.08578  	-106.85091  	-1.12610  	61.80964  	66.90840  	-15492.71321  	-4203.52797  	0.00434  	0.00002  	0.00423  	0.00427  	0.00502  	0.00000  	0.00000  
160.11284  	22.99799  	5.06623  	5.29539  	14.57514  	-1.18512  	0.01270  	0.22823  	0.21019  	-3.02442  	0.07393  	-0.08569  	-106.81302  	-1.13607  	62.03638  	67.36009  	-15491.14755  	-4203.40881  	0.00434  	0.00003  	0.00424  	0.00424  	0.00503  	0.00000  	0.00000  
161.11616  	22.99285  	5.06683  	5.29507  	14.57324  	-1.18512  	0.01386  	0.23000  	0.21304  	-3.02442  	0.07207  	-0.08567  	-106.77190  	-1.13156  	62.87677  	67.88164  	-15489.77162  	-4203.42502  	0.00434  	0.00003  	0.00423  	0.00427  	0.00503  	0.00000  	0.00000  
162.11950  	22.99643  	5.06670  	5.29466  	14.57191  	-1.18512  	0.01416  	0.22984  	0.21797  	-3.02442  	0.06917  	-0.08569  	-106.83426  	-1.13020  	64.33093  	67.83604  	-15490.21006  	-4203.39305  	0.00435  	0.00003  	0.00422  	0.00427  	0.00503  	0.00000  	0.00000  
163.12082  	22.99545  	5.06615  	5.29323  	14.57036  	-1.18512  	0.01266  	0.23012  	0.21232  	-3.02442  	0.07378  	-0.08567  	-106.84158  	-1.12585  	62.66420  	67.91837  	-15489.71653  	-4203.27456  	0.00434  	0.00003  	0.00424  	0.00424  	0.00504  	0.00000  	0.00000  
164.12312  	23.00263  	5.06566  	5.29369  	14.56949  	-1.18512  	0.01331  	0.23161  	0.21660  	-3.02442  	0.07109  	-0.08566  	-106.94369  	-1.13052  	63.92848  	68.35565  	-15490.94978  	-4203.27311  	0.00435  	0.00003  	0.00423  	0.00426  	0.00504  	0.00000  	0.00000  
165.12546  	23.00245  	5.06628  	5.29329  	14.56848  	-1.18512  	0.01357  	0.23260  	0.21511  	-3.02442  	0.07419  	-0.08569  	-106.95418  	-1.12548  	63.48602  	68.64971  	-15490.71789  	-4203.28589  	0.00434  	0.00003  	0.00424  	0.00426  	0.00505  	0.00000  	0.00000  
166.12579  	23.00207  	5.06621  	5.29429  	14.56864  	-1.18512  	0.01422  	0.23208  	0.21488  	-3.02442  	0.07366  	-0.08566  	-106.94739  	-1.13076  	63.41945  	68.49661  	-15490.67493  	-4203.34176  	0.00434  	0.00003  	0.00424  	0.00427  	0.00504  	0.00000  	0.00000  
167.12910  	23.00221  	5.06622  	5.29432  	14.56966  	-1.18512  	0.01382  	0.23347  	0.21667  	-3.02442  	0.07292  	-0.08570  	-106.93613  	-1.13085  	63.94874  	68.90720  	-15490.90177  	-4203.34376  	0.00435  	0.00003  	0.00423  	0.00427  	0.00505  	0.00000  	0.00000  
168.13142  	22.99274  	5.06619  	5.29471  	14.56948  	-1.18512  	0.01454  	0.23317  	0.21595  	-3.02442  	0.07434  	-0.08568  	-106.81829  	-1.13292  	63.73502  	68.81786  	-15489.01418  	-4203.36564  	0.00435  	0.00003  	0.00424  	0.00428  	0.00505  	0.00000  	0.00000  
169.13275  	22.99949  	5.06667  	5.29482  	14.57077  	-1.18512  	0.01343  	0.23349  	0.21598  	-3.02442  	0.07197  	-0.08573  	-106.88754  	-1.13114  	63.74325  	68.91266  	-15490.58572  	-4203.40093  	0.00435  	0.00003  	0.00423  	0.00426  	0.00505  	0.00000  	0.00000  
170.13609  	22.99711  	5.06706  	5.29534  	14.57206  	-1.18512  	0.01281  	0.23274  	0.21764  	-3.02442  	0.07319  	-0.08570  	-106.84108  	-1.13175  	64.23529  	68.69064  	-15490.37403  	-4203.45503  	0.00435  	0.00003  	0.00423  	0.00425  	0.00505  	0.00000  	0.00000  
171.13940  	23.00002  	5.06710  	5.29561  	14.57342  	-1.18512  	0.01472  	0.23443  	0.21917  	-3.02442  	0.07098  	-0.08566  	-106.86068  	-1.13289  	64.68557  	69.18925  	-15491.20881  	-4203.47464  	0.00435  	0.00003  	0.00423  	0.00428  	0.00506  	0.00000  	0.00000  
172.14072  	22.99889  	5.06803  	5.29574  	14.57423  	-1.18512  	0.01370  	0.23298  	0.21758  	-3.02442  	0.07237  	-0.08573  	-106.83602  	-1.12891  	64.21778  	68.76200  	-15491.14440  	-4203.53745  	0.00435  	0.00003  	0.00423  	0.00426  	0.00505  	0.00000  	0.00000  
173.14204  	22.99117  	5.06819  	5.29716  	14.57545  	-1.18512  	0.01523  	0.23356  	0.21829  	-3.02442  	0.07316  	-0.08574  	-106.72260  	-1.13519  	64.42647  	68.93298  	-15489.87499  	-4203.63193  	0.00435  	0.00002  	0.00423  	0.00429  	0.00505  	0.00000  	0.00000  
174.14436  	22.99055  	5.06886  	5.29715  	14.57775  	-1.18512  	0.01443  	0.23340  	0.21442  	-3.02442  	0.07364  	-0.08569  	-106.68556  	-1.13180  	63.28389  	68.88584  	-15490.20194  	-4203.67196  	0.00434  	0.00003  	0.00424  	0.00428  	0.00505  	0.00000  	0.00000  
175.14770  	22.99186  	5.06841  	5.29719  	14.57859  	-1.18512  	0.01270  	0.23258  	0.21654  	-3.02442  	0.07382  	-0.08571  	-106.69147  	-1.13422  	63.90835  	68.64259  	-15490.62389  	-4203.64731  	0.00435  	0.00003  	0.00424  	0.00424  	0.00505  	0.00000  	0.00000  
176.14902  	22.99057  	5.06974  	5.29745  	14.57900  	-1.18512  	0.01362  	0.23216  	0.21652  	-3.02442  	0.07399  	-0.08573  	-106.66987  	-1.12896  	63.90443  	68.51823  	-15490.45151  	-4203.74261  	0.00435  	0.00003  	0.00424  	0.00426  	0.00504  	0.00000  	0.00000  
177.15135  	22.99359  	5.07012  	5.29737  	14.57980  	-1.18512  	0.01413  	0.23347  	0.21535  	-3.02442  	0.07259  	-0.08571  	-106.69801  	-1.12664  	63.55750  	68.90663  	-15491.19758  	-4203.76091  	0.00434  	0.00003  	0.00423  	0.00427  	0.00505  	0.00000  	0.00000  
178.15466  	22.99800  	5.06960  	5.29825  	14.57998  	-1.18512  	0.01359  	0.23176  	0.21667  	-3.02442  	0.07207  	-0.08570  	-106.75177  	-1.13360  	63.94656  	68.40077  	-15492.09644  	-4203.78166  	0.00435  	0.00003  	0.00423  	0.00426  	0.00504  	0.00000  	0.00000  
179.15599  	22.99418  	5.06880  	5.29743  	14.58158  	-1.18512  	0.01388  	0.23120  	0.21602  	-3.02442  	0.07088  	-0.08572  	-106.68301  	-1.13349  	63.75490  	68.23491  	-15491.66138  	-4203.68465  	0.00435  	0.00003  	0.00423  	0.00427  	0.00504  	0.00000  	0.00000  
180.15681  	22.99160  	5.06975  	5.29698  	14.58248  	-1.18512  	0.01308  	0.23182  	0.21857  	-3.02442  	0.07355  	-0.08570  	-106.63896  	-1.12653  	64.50865  	68.41856  	-15491.33303  	-4203.71515  	0.00435  	0.00003  	0.00424  	0.00425  	0.00504  	0.00000  	0.00000  
181.16013  	22.99124  	5.06935  	5.29660  	14.58210  	-1.18512  	0.01332  	0.23167  	0.21457  	-3.02442  	0.07264  	-0.08568  	-106.63922  	-1.12665  	63.32817  	68.37489  	-15491.18895  	-4203.66803  	0.00434  	0.00003  	0.00423  	0.00426  	0.00504  	0.00000  	0.00000  
182.16242  	22.99458  	5.06892  	5.29652  	14.58371  	-1.18512  	0.01446  	0.23123  	0.21392  	-3.02442  	0.07201  	-0.08567  	-106.66101  	-1.12841  	63.13508  	68.24381  	-15492.15679  	-4203.63764  	0.00434  	0.00003  	0.00423  	0.00428  	0.00504  	0.00000  	0.00000  
183.16377  	22.99068  	5.06776  	5.29604  	14.58320  	-1.18512  	0.01400  	0.23097  	0.21273  	-3.02442  	0.07359  	-0.08570  	-106.61818  	-1.13175  	62.78518  	68.16900  	-15491.29457  	-4203.53960  	0.00434  	0.00003  	0.00424  	0.00427  	0.00504  	0.00000  	0.00000  
184.16609  	22.99257  	5.06710  	5.29600  	14.58291  	-1.18512  	0.01342  	0.23165  	0.21499  	-3.02442  	0.07366  	-0.08573  	-106.64586  	-1.13483  	63.45264  	68.36822  	-15491.60730  	-4203.49775  	0.00434  	0.00003  	0.00424  	0.00426  	0.00504  	0.00000  	0.00000  
185.16943  	22.98959  	5.06739  	5.29585  	14.58317  	-1.18512  	0.01368  	0.22943  	0.21453  	-3.02442  	0.07500  	-0.08571  	-106.60475  	-1.13262  	63.31538  	67.71383  	-15491.07633  	-4203.50555  	0.00434  	0.00003  	0.00424  	0.00426  	0.00503  	0.00000  	0.00000  
186.17072  	22.99306  	5.06743  	5.29395  	14.58254  	-1.18512  	0.01361  	0.23010  	0.21515  	-3.02442  	0.07216  	-0.08564  	-106.65680  	-1.12303  	63.50006  	67.91038  	-15491.63098  	-4203.39394  	0.00434  	0.00003  	0.00423  	0.00426  	0.00504  	0.00000  	0.00000  
187.17311  	22.98951  	5.06685  	5.29406  	14.58214  	-1.18512  	0.01333  	0.23089  	0.21259  	-3.02442  	0.07366  	-0.08569  	-106.61676  	-1.12648  	62.74446  	68.14572  	-15490.85788  	-4203.36619  	0.00434  	0.00003  	0.00424  	0.00426  	0.00504  	0.00000  	0.00000  
188.17543  	22.98941  	5.06694  	5.29508  	14.58115  	-1.18512  	0.01325  	0.23020  	0.21112  	-3.02442  	0.07191  	-0.08570  	-106.62802  	-1.13103  	62.30878  	67.94086  	-15490.64614  	-4203.43302  	0.00434  	0.00003  	0.00423  	0.00425  	0.00504  	0.00000  	0.00000  
189.17673  	22.98654  	5.06671  	5.29555  	14.58071  	-1.18512  	0.01391  	0.22942  	0.21324  	-3.02442  	0.07327  	-0.08566  	-106.59731  	-1.13453  	62.93404  	67.71187  	-15489.99856  	-4203.44747  	0.00434  	0.00003  	0.00423  	0.00427  	0.00503  	0.00000  	0.00000  
190.18010  	22.99224  	5.06741  	5.29492  	14.57964  	-1.18512  	0.01456  	0.22875  	0.21241  	-3.02442  	0.07291  	-0.08571  	-106.68317  	-1.12790  	62.68992  	67.51261  	-15490.90394  	-4203.45123  	0.00434  	0.00003  	0.00423  	0.00428  	0.00503  	0.00000  	0.00000  
191.18242  	22.99331  	5.06745  	5.29501  	14.57898  	-1.18512  	0.01379  	0.22897  	0.21063  	-3.02442  	0.07056  	-0.08569  	-106.70515  	-1.12818  	62.16487  	67.57851  	-15490.98319  	-4203.45854  	0.00434  	0.00003  	0.00423  	0.00426  	0.00503  	0.00000  	0.00000  
192.18374  	22.99235  	5.06656  	5.29455  	14.57770  	-1.18512  	0.01346  	0.22752  	0.21377  	-3.02442  	0.07241  	-0.08564  	-106.70913  	-1.13031  	63.09146  	67.15116  	-15490.54672  	-4203.37794  	0.00434  	0.00003  	0.00423  	0.00426  	0.00502  	0.00000  	0.00000  
193.18503  	22.99048  	5.06632  	5.29473  	14.57567  	-1.18512  	0.01338  	0.22805  	0.20993  	-3.02442  	0.07268  	-0.08571  	-106.71117  	-1.13242  	61.95802  	67.30715  	-15489.78448  	-4203.37450  	0.00434  	0.00003  	0.00423  	0.00426  	0.00503  	0.00000  	0.00000  
194.18738  	22.98973  	5.06736  	5.29468  	14.57522  	-1.18512  	0.01337  	0.22618  	0.21189  	-3.02442  	0.07304  	-0.08569  	-106.70728  	-1.12698  	62.53671  	66.75380  	-15489.54869  	-4203.43376  	0.00434  	0.00003  	0.00423  	0.00426  	0.00502  	0.00000  	0.00000  
195.19069  	22.99026  	5.06761  	5.29424  	14.57234  	-1.18512  	0.01337  	0.22828  	0.21371  	-3.02442  	0.07409  	-0.08573  	-106.75049  	-1.12357  	63.07318  	67.37559  	-15489.08880  	-4203.42208  	0.00434  	0.00003  	0.00424  	0.00426  	0.00503  	0.00000  	0.00000  
196.19201  	22.99390  	5.06777  	5.29539  	14.56979  	-1.18512  	0.01428  	0.22953  	0.21528  	-3.02442  	0.07313  	-0.08568  	-106.82902  	-1.12848  	63.53721  	67.74328  	-15489.30355  	-4203.50144  	0.00434  	0.00003  	0.00423  	0.00427  	0.00503  	0.00000  	0.00000  
197.19533  	22.99407  	5.06841  	5.29613  	14.56812  	-1.18512  	0.01472  	0.23029  	0.21258  	-3.02442  	0.07418  	-0.08575  	-106.85234  	-1.12896  	62.73925  	67.96852  	-15489.00968  	-4203.58360  	0.00434  	0.00002  	0.00424  	0.00428  	0.00504  	0.00000  	0.00000  
198.19865  	22.98646  	5.06867  	5.29627  	14.56747  	-1.18512  	0.01460  	0.23097  	0.21696  	-3.02442  	0.07205  	-0.08565  	-106.76410  	-1.12836  	64.03206  	68.16699  	-15487.39315  	-4203.60777  	0.00435  	0.00003  	0.00423  	0.00428  	0.00504  	0.00000  	0.00000  
199.19994  	22.98863  	5.06752  	5.29605  	14.56768  	-1.18512  	0.01410  	0.23275  	0.21366  	-3.02442  	0.07232  	-0.08570  	-106.78903  	-1.13299  	63.05840  	68.69256  	-15487.85989  	-4203.52531  	0.00434  	0.00003  	0.00423  	0.00427  	0.00505  	0.00000  	0.00000  
200.20229  	22.98975  	5.06801  	5.29671  	14.56606  	-1.18512  	0.01465  	0.23281  	0.21452  	-3.02442  	0.07297  	-0.08571  	-106.82379  	-1.13380  	63.31447  	68.71071  	-15487.76210  	-4203.59460  	0.00434  	0.00003  	0.00423  	0.00428  	0.00505  	0.00000  	0.00000  
201.20561  	22.99186  	5.06776  	5.29678  	14.56591  	-1.18512  	0.01447  	0.23314  	0.21566  	-3.02442  	0.07412  	-0.08574  	-106.85240  	-1.13543  	63.64985  	68.80954  	-15488.14565  	-4203.58344  	0.00435  	0.00003  	0.00424  	0.00428  	0.00505  	0.00000  	0.00000  
202.20596  	22.99432  	5.06863  	5.29572  	14.56615  	-1.18512  	0.01489  	0.23323  	0.21642  	-3.02442  	0.07133  	-0.08564  	-106.88051  	-1.12585  	63.87412  	68.83423  	-15488.67178  	-4203.57184  	0.00435  	0.00003  	0.00423  	0.00429  	0.00505  	0.00000  	0.00000  
203.20828  	22.99606  	5.06773  	5.29640  	14.56693  	-1.18512  	0.01360  	0.23287  	0.21573  	-3.02442  	0.07348  	-0.08569  	-106.89268  	-1.13369  	63.67051  	68.72848  	-15489.16492  	-4203.55951  	0.00435  	0.00003  	0.00424  	0.00426  	0.00505  	0.00000  	0.00000  
204.21159  	22.99573  	5.06820  	5.29564  	14.56786  	-1.18512  	0.01397  	0.23293  	0.21638  	-3.02442  	0.07290  	-0.08570  	-106.87663  	-1.12761  	63.86362  	68.74523  	-15489.28330  	-4203.54145  	0.00435  	0.00003  	0.00423  	0.00427  	0.00505  	0.00000  	0.00000  
205.21292  	22.99794  	5.06836  	5.29478  	14.56952  	-1.18512  	0.01347  	0.23302  	0.22057  	-3.02442  	0.07200  	-0.08570  	-106.88364  	-1.12249  	65.09878  	68.77316  	-15490.03889  	-4203.49983  	0.00435  	0.00003  	0.00423  	0.00426  	0.00505  	0.00000  	0.00000  
206.21623  	22.99630  	5.06700  	5.29486  	14.57079  	-1.18512  	0.01409  	0.23272  	0.21642  	-3.02442  	0.07271  	-0.08564  	-106.84684  	-1.12966  	63.87356  	68.68372  	-15489.96809  	-4203.42308  	0.00435  	0.00003  	0.00423  	0.00427  	0.00505  	0.00000  	0.00000  
207.21755  	22.99591  	5.06743  	5.29498  	14.57270  	-1.18512  	0.01302  	0.23302  	0.21788  	-3.02442  	0.07266  	-0.08573  	-106.81774  	-1.12812  	64.30558  	68.77209  	-15490.26451  	-4203.45574  	0.00435  	0.00003  	0.00423  	0.00425  	0.00505  	0.00000  	0.00000  
208.21884  	22.99678  	5.06736  	5.29491  	14.57318  	-1.18512  	0.01431  	0.23248  	0.21944  	-3.02442  	0.07138  	-0.08566  	-106.82265  	-1.12811  	64.76669  	68.61403  	-15490.52858  	-4203.44739  	0.00435  	0.00003  	0.00423  	0.00427  	0.00505  	0.00000  	0.00000  
209.22221  	22.99725  	5.06732  	5.29498  	14.57505  	-1.18512  	0.01357  	0.23215  	0.21975  	-3.02442  	0.07242  	-0.08570  	-106.80489  	-1.12867  	64.85532  	68.51558  	-15490.98495  	-4203.44908  	0.00435  	0.00003  	0.00423  	0.00426  	0.00504  	0.00000  	0.00000  
210.22552  	22.99839  	5.06808  	5.29442  	14.57610  	-1.18512  	0.01482  	0.23281  	0.21483  	-3.02442  	0.07193  	-0.08574  	-106.80600  	-1.12217  	63.40437  	68.71032  	-15491.41496  	-4203.46143  	0.00434  	0.00003  	0.00423  	0.00428  	0.00505  	0.00000  	0.00000  
211.22713  	22.99587  	5.06677  	5.29385  	14.57786  	-1.18512  	0.01458  	0.23203  	0.21749  	-3.02442  	0.07208  	-0.08569  	-106.75168  	-1.12582  	64.19072  	68.48144  	-15491.26518  	-4203.34918  	0.00435  	0.00003  	0.00423  	0.00428  	0.00504  	0.00000  	0.00000  
212.22945  	22.99621  	5.06734  	5.29406  	14.57884  	-1.18512  	0.01348  	0.23219  	0.21625  	-3.02442  	0.07356  	-0.08563  	-106.74371  	-1.12401  	63.82351  	68.52818  	-15491.52255  	-4203.39525  	0.00435  	0.00003  	0.00424  	0.00426  	0.00504  	0.00000  	0.00000  
213.23074  	22.99487  	5.06828  	5.29504  	14.58019  	-1.18512  	0.01369  	0.23161  	0.21559  	-3.02442  	0.07316  	-0.08569  	-106.70940  	-1.12424  	63.62901  	68.35701  	-15491.52528  	-4203.51067  	0.00434  	0.00003  	0.00423  	0.00426  	0.00504  	0.00000  	0.00000  
214.23409  	22.99683  	5.06830  	5.29656  	14.58114  	-1.18512  	0.01334  	0.23140  	0.21377  	-3.02442  	0.07182  	-0.08569  	-106.72223  	-1.13167  	63.09221  	68.29638  	-15492.09515  	-4203.60329  	0.00434  	0.00003  	0.00423  	0.00426  	0.00504  	0.00000  	0.00000  
215.23740  	22.99520  	5.06876  	5.29676  	14.58108  	-1.18512  	0.01319  	0.23141  	0.21624  	-3.02442  	0.07543  	-0.08570  	-106.70224  	-1.13036  	63.82199  	68.29922  	-15491.76425  	-4203.64273  	0.00435  	0.00003  	0.00424  	0.00425  	0.00504  	0.00000  	0.00000  
216.23772  	22.99185  	5.06933  	5.29685  	14.58189  	-1.18512  	0.01396  	0.23122  	0.21211  	-3.02442  	0.07301  	-0.08572  	-106.64951  	-1.12799  	62.60183  	68.24264  	-15491.26760  	-4203.68163  	0.00434  	0.00003  	0.00423  	0.00427  	0.00504  	0.00000  	0.00000  
217.24005  	22.99367  	5.06865  	5.29715  	14.58253  	-1.18512  	0.01403  	0.23134  	0.21524  	-3.02442  	0.07412  	-0.08567  	-106.66449  	-1.13282  	63.52506  	68.27696  	-15491.74847  	-4203.65912  	0.00434  	0.00003  	0.00424  	0.00427  	0.00504  	0.00000  	0.00000  
218.24334  	22.98592  	5.06925  	5.29690  	14.58342  	-1.18512  	0.01463  	0.23241  	0.21182  	-3.02442  	0.07337  	-0.08573  	-106.55501  	-1.12865  	62.51698  	68.59242  	-15490.40634  	-4203.68040  	0.00434  	0.00003  	0.00423  	0.00428  	0.00505  	0.00000  	0.00000  
219.24668  	22.99037  	5.06953  	5.29803  	14.58361  	-1.18512  	0.01418  	0.23165  	0.21642  	-3.02442  	0.07317  	-0.08574  	-106.60889  	-1.13282  	63.87407  	68.36748  	-15491.31299  	-4203.76454  	0.00435  	0.00003  	0.00423  	0.00427  	0.00504  	0.00000  	0.00000  
220.24797  	22.98730  	5.06920  	5.29830  	14.58339  	-1.18512  	0.01362  	0.22968  	0.21639  	-3.02442  	0.07237  	-0.08569  	-106.57275  	-1.13581  	63.86461  	67.78685  	-15490.67117  	-4203.76064  	0.00435  	0.00003  	0.00423  	0.00426  	0.00503  	0.00000  	0.00000  
221.25132  	22.99265  	5.07005  	5.29783  	14.58294  	-1.18512  	0.01385  	0.23119  	0.21313  	-3.02442  	0.07256  	-0.08570  	-106.64641  	-1.12929  	62.90155  	68.23304  	-15491.62904  	-4203.78385  	0.00434  	0.00003  	0.00423  	0.00427  	0.00504  	0.00000  	0.00000  
222.25463  	22.99019  	5.06950  	5.29822  	14.58336  	-1.18512  	0.01374  	0.22921  	0.21470  	-3.02442  	0.07361  	-0.08566  	-106.60976  	-1.13394  	63.36501  	67.64809  	-15491.22914  	-4203.77453  	0.00434  	0.00003  	0.00424  	0.00426  	0.00503  	0.00000  	0.00000  
223.25595  	22.99209  	5.06931  	5.29827  	14.58194  	-1.18512  	0.01381  	0.23076  	0.21418  	-3.02442  	0.07189  	-0.08570  	-106.65196  	-1.13513  	63.21287  	68.10667  	-15491.32296  	-4203.76578  	0.00434  	0.00003  	0.00423  	0.00427  	0.00504  	0.00000  	0.00000  
224.25927  	22.99184  	5.06955  	5.29831  	14.58149  	-1.18512  	0.01291  	0.22973  	0.21545  	-3.02442  	0.07243  	-0.08564  	-106.65444  	-1.13414  	63.58896  	67.80237  	-15491.18589  	-4203.78225  	0.00434  	0.00003  	0.00423  	0.00425  	0.00503  	0.00000  	0.00000  
225.26261  	22.99171  	5.07023  	5.29763  	14.58087  	-1.18512  	0.01410  	0.22874  	0.21319  	-3.02442  	0.07323  	-0.08569  	-106.66071  	-1.12739  	62.92075  	67.50978  	-15491.04099  	-4203.78233  	0.00434  	0.00003  	0.00423  	0.00427  	0.00503  	0.00000  	0.00000  
226.26395  	22.98901  	5.07065  	5.29578  	14.58052  	-1.18512  	0.01378  	0.22871  	0.21028  	-3.02442  	0.07305  	-0.08569  	-106.63086  	-1.11613  	62.06160  	67.50185  	-15490.44492  	-4203.69736  	0.00434  	0.00003  	0.00423  	0.00426  	0.00503  	0.00000  	0.00000  
227.26627  	22.99246  	5.06977  	5.29617  	14.58030  	-1.18512  	0.01419  	0.22762  	0.21271  	-3.02442  	0.07421  	-0.08566  	-106.67750  	-1.12246  	62.77841  	67.18038  	-15491.07519  	-4203.66776  	0.00434  	0.00003  	0.00424  	0.00427  	0.00502  	0.00000  	0.00000  
228.26959  	22.98985  	5.06899  	5.29664  	14.57864  	-1.18512  	0.01499  	0.22842  	0.20967  	-3.02442  	0.07250  	-0.08574  	-106.66537  	-1.12859  	61.88082  	67.41587  	-15490.24157  	-4203.64903  	0.00434  	0.00003  	0.00423  	0.00429  	0.00503  	0.00000  	0.00000  
229.27091  	22.98819  	5.06859  	5.29580  	14.57741  	-1.18512  	0.01210  	0.22763  	0.21211  	-3.02442  	0.07436  	-0.08568  	-106.66002  	-1.12645  	62.60114  	67.18311  	-15489.67514  	-4203.57444  	0.00434  	0.00003  	0.00424  	0.00423  	0.00502  	0.00000  	0.00000  
230.27422  	22.98860  	5.07009  	5.29567  	14.57657  	-1.18512  	0.01447  	0.22629  	0.20762  	-3.02442  	0.07431  	-0.08569  	-106.67583  	-1.11835  	61.27680  	66.78825  	-15489.59089  	-4203.65706  	0.00433  	0.00003  	0.00424  	0.00428  	0.00502  	0.00000  	0.00000  
231.27655  	22.98924  	5.06882  	5.29468  	14.57348  	-1.18512  	0.01290  	0.22630  	0.21109  	-3.02442  	0.07329  	-0.08567  	-106.72317  	-1.11974  	62.30168  	66.78934  	-15489.11285  	-4203.52160  	0.00434  	0.00003  	0.00423  	0.00425  	0.00502  	0.00000  	0.00000  
232.27786  	22.98894  	5.06882  	5.29642  	14.57283  	-1.18512  	0.01308  	0.22811  	0.21114  	-3.02442  	0.07365  	-0.08571  	-106.72751  	-1.12838  	62.31648  	67.32517  	-15488.92825  	-4203.62562  	0.00434  	0.00003  	0.00424  	0.00425  	0.00503  	0.00000  	0.00000  
233.28118  	22.98644  	5.06900  	5.29649  	14.57155  	-1.18512  	0.01251  	0.22915  	0.21747  	-3.02442  	0.07036  	-0.08567  	-106.71209  	-1.12781  	64.18412  	67.63038  	-15488.18803  	-4203.64082  	0.00435  	0.00003  	0.00423  	0.00424  	0.00503  	0.00000  	0.00000  
234.28449  	22.99030  	5.06934  	5.29557  	14.56876  	-1.18512  	0.01518  	0.23069  	0.21217  	-3.02442  	0.07248  	-0.08575  	-106.79648  	-1.12160  	62.62045  	68.08483  	-15488.39659  	-4203.60586  	0.00434  	0.00002  	0.00423  	0.00429  	0.00504  	0.00000  	0.00000  
235.28581  	22.99185  	5.06836  	5.29532  	14.56710  	-1.18512  	0.01429  	0.23073  	0.21498  	-3.02442  	0.07212  	-0.08573  	-106.83723  	-1.12523  	63.44899  	68.09597  	-15488.37537  	-4203.53219  	0.00434  	0.00003  	0.00423  	0.00427  	0.00504  	0.00000  	0.00000  
236.28816  	22.99135  	5.06735  	5.29533  	14.56637  	-1.18512  	0.01280  	0.23124  	0.21685  	-3.02442  	0.07199  	-0.08567  	-106.84003  	-1.13026  	64.00112  	68.24748  	-15488.13566  	-4203.47248  	0.00435  	0.00003  	0.00423  	0.00425  	0.00504  	0.00000  	0.00000  
237.29051  	22.98667  	5.06791  	5.29519  	14.56531  	-1.18512  	0.01449  	0.23246  	0.21667  	-3.02442  	0.07395  	-0.08569  	-106.79417  	-1.12680  	63.94750  	68.60872  	-15487.01292  	-4203.49779  	0.00435  	0.00003  	0.00424  	0.00428  	0.00505  	0.00000  	0.00000  
238.29180  	22.99465  	5.06796  	5.29491  	14.56494  	-1.18512  	0.01328  	0.23238  	0.21212  	-3.02442  	0.07097  	-0.08572  	-106.90003  	-1.12519  	62.60426  	68.58335  	-15488.50145  	-4203.48383  	0.00434  	0.00003  	0.00423  	0.00425  	0.00505  	0.00000  	0.00000  
239.29514  	22.99115  	5.06798  	5.29619  	14.56642  	-1.18512  	0.01435  	0.23196  	0.21813  	-3.02442  	0.07182  	-0.08569  	-106.83688  	-1.13139  	64.37846  	68.46149  	-15488.10418  	-4203.56149  	0.00435  	0.00003  	0.00423  	0.00428  	0.00504  	0.00000  	0.00000  
240.29846  	22.99237  	5.06907  	5.29702  	14.56713  	-1.18512  	0.01384  	0.23329  	0.21903  	-3.02442  	0.07223  	-0.08572  	-106.84322  	-1.13010  	64.64484  	68.85338  	-15488.48380  	-4203.67689  	0.00435  	0.00003  	0.00423  	0.00427  	0.00505  	0.00000  	0.00000  
241.29978  	22.99248  	5.06893  	5.29688  	14.56717  	-1.18512  	0.01459  	0.23306  	0.21927  	-3.02442  	0.07094  	-0.08566  	-106.84423  	-1.13013  	64.71412  	68.78467  	-15488.51379  	-4203.65991  	0.00435  	0.00003  	0.00423  	0.00428  	0.00505  	0.00000  	0.00000  
242.30310  	22.99266  	5.06844  	5.29729  	14.56957  	-1.18512  	0.01532  	0.23309  	0.22001  	-3.02442  	0.07394  	-0.08565  	-106.81608  	-1.13455  	64.93394  	68.79418  	-15489.01618  	-4203.65517  	0.00435  	0.00003  	0.00424  	0.00429  	0.00505  	0.00000  	0.00000  
243.30641  	22.99330  	5.06848  	5.29785  	14.57092  	-1.18512  	0.01273  	0.23423  	0.21540  	-3.02442  	0.07115  	-0.08563  	-106.80704  	-1.13717  	63.57227  	69.13014  	-15489.40717  	-4203.69073  	0.00434  	0.00003  	0.00423  	0.00424  	0.00505  	0.00000  	0.00000  
244.30774  	22.99540  	5.06910  	5.29781  	14.57171  	-1.18512  	0.01293  	0.23413  	0.21672  	-3.02442  	0.07154  	-0.08571  	-106.82361  	-1.13389  	63.96310  	69.10006  	-15489.97156  	-4203.72581  	0.00435  	0.00003  	0.00423  	0.00425  	0.00505  	0.00000  	0.00000  
245.30903  	22.99457  	5.06870  	5.29802  	14.57252  	-1.18512  	0.01333  	0.23318  	0.21608  	-3.02442  	0.07283  	-0.08568  	-106.80289  	-1.13691  	63.77280  	68.81962  	-15489.96772  	-4203.71403  	0.00435  	0.00003  	0.00423  	0.00426  	0.00505  	0.00000  	0.00000  
246.31138  	22.99303  	5.06993  	5.29786  	14.57450  	-1.18512  	0.01388  	0.23180  	0.21661  	-3.02442  	0.07197  	-0.08568  	-106.75812  	-1.12999  	63.93145  	68.41311  	-15490.05252  	-4203.77830  	0.00435  	0.00003  	0.00423  	0.00427  	0.00504  	0.00000  	0.00000  
247.31469  	22.99051  	5.07032  	5.29831  	14.57609  	-1.18512  	0.01356  	0.23301  	0.21541  	-3.02442  	0.07209  	-0.08567  	-106.70607  	-1.13031  	63.57702  	68.77149  	-15489.87164  	-4203.82888  	0.00434  	0.00003  	0.00423  	0.00426  	0.00505  	0.00000  	0.00000  
248.31604  	22.99132  	5.07048  	5.29814  	14.57776  	-1.18512  	0.01422  	0.23275  	0.21510  	-3.02442  	0.07206  	-0.08566  	-106.69525  	-1.12866  	63.48558  	68.69265  	-15490.35613  	-4203.82803  	0.00434  	0.00003  	0.00423  	0.00427  	0.00505  	0.00000  	0.00000  
249.31836  	22.99382  	5.07029  	5.29721  	14.57899  	-1.18512  	0.01368  	0.23287  	0.21633  	-3.02442  	0.07359  	-0.08568  	-106.71126  	-1.12502  	63.84791  	68.72866  	-15491.08609  	-4203.76144  	0.00435  	0.00003  	0.00424  	0.00426  	0.00505  	0.00000  	0.00000  
250.32068  	22.99944  	5.07018  	5.29671  	14.58000  	-1.18512  	0.01289  	0.23326  	0.21612  	-3.02442  	0.07284  	-0.08567  	-106.76970  	-1.12305  	63.78593  	68.84425  	-15492.38159  	-4203.72456  	0.00435  	0.00003  	0.00423  	0.00425  	0.00505  	0.00000  	0.00000  
251.32100  	22.99975  	5.07033  	5.29771  	14.58061  	-1.18512  	0.01480  	0.23172  	0.21352  	-3.02442  	0.07451  	-0.08570  	-106.76587  	-1.12732  	63.01686  	68.38811  	-15492.56092  	-4203.79366  	0.00434  	0.00003  	0.00424  	0.00428  	0.00504  	0.00000  	0.00000  
252.32432  	22.99757  	5.07066  	5.29757  	14.58148  	-1.18512  	0.01371  	0.23250  	0.21390  	-3.02442  	0.07077  	-0.08572  	-106.72728  	-1.12495  	63.12991  	68.61950  	-15492.30566  	-4203.80491  	0.00434  	0.00003  	0.00423  	0.00426  	0.00505  	0.00000  	0.00000  
253.32763  	22.99300  	5.06949  	5.29807  	14.58289  	-1.18512  	0.01280  	0.23083  	0.21613  	-3.02442  	0.07334  	-0.08573  	-106.65141  	-1.13320  	63.78852  	68.12732  	-15491.68807  	-4203.76457  	0.00435  	0.00003  	0.00423  	0.00425  	0.00504  	0.00000  	0.00000  
254.32894  	22.99371  	5.07007  	5.29814  	14.58207  	-1.18512  	0.01403  	0.23077  	0.21645  	-3.02442  	0.07315  	-0.08572  	-106.67075  	-1.13067  	63.88364  	68.10851  	-15491.66446  	-4203.80372  	0.00435  	0.00003  	0.00423  	0.00427  	0.00504  	0.00000  	0.00000  
255.33230  	23.00007  	5.07037  	5.29793  	14.58324  	-1.18512  	0.01393  	0.23214  	0.21625  	-3.02442  	0.07305  	-0.08568  	-106.73661  	-1.12818  	63.82348  	68.51266  	-15493.13879  	-4203.80912  	0.00435  	0.00003  	0.00423  	0.00427  	0.00504  	0.00000  	0.00000  
256.33559  	23.00079  	5.07090  	5.29788  	14.58373  	-1.18512  	0.01418  	0.23196  	0.21539  	-3.02442  	0.07425  	-0.08569  	-106.73953  	-1.12531  	63.56948  	68.46038  	-15493.37549  	-4203.83745  	0.00434  	0.00003  	0.00424  	0.00427  	0.00504  	0.00000  	0.00000  
257.33694  	22.99764  	5.07033  	5.29773  	14.58340  	-1.18512  	0.01326  	0.23075  	0.21619  	-3.02442  	0.07244  	-0.08568  	-106.70374  	-1.12740  	63.80461  	68.10422  	-15492.69356  	-4203.79439  	0.00435  	0.00003  	0.00423  	0.00425  	0.00504  	0.00000  	0.00000  
258.33925  	22.99337  	5.07088  	5.29981  	14.58350  	-1.18512  	0.01462  	0.22990  	0.21103  	-3.02442  	0.07126  	-0.08567  	-106.64824  	-1.13500  	62.28330  	67.85256  	-15491.87873  	-4203.95214  	0.00434  	0.00003  	0.00423  	0.00428  	0.00503  	0.00000  	0.00000  
259.34257  	22.99581  	5.07120  	5.29922  	14.58405  	-1.18512  	0.01319  	0.23138  	0.20975  	-3.02442  	0.07110  	-0.08566  	-106.67226  	-1.13045  	61.90550  	68.28782  	-15492.46176  	-4203.93599  	0.00434  	0.00003  	0.00423  	0.00425  	0.00504  	0.00000  	0.00000  
260.34290  	22.99404  	5.07094  	5.29814  	14.58251  	-1.18512  	0.01405  	0.23134  	0.21552  	-3.02442  	0.07139  	-0.08567  	-106.66944  	-1.12640  	63.60886  	68.27632  	-15491.81693  	-4203.85609  	0.00434  	0.00003  	0.00423  	0.00427  	0.00504  	0.00000  	0.00000  
261.34621  	22.99205  	5.07022  	5.29821  	14.58248  	-1.18512  	0.01465  	0.22858  	0.21308  	-3.02442  	0.07311  	-0.08572  	-106.64444  	-1.13031  	62.88938  	67.46199  	-15491.42117  	-4203.81641  	0.00434  	0.00003  	0.00423  	0.00428  	0.00503  	0.00000  	0.00000  
262.34753  	22.99284  	5.07078  	5.29849  	14.58169  	-1.18512  	0.01432  	0.22888  	0.21369  	-3.02442  	0.07325  	-0.08566  	-106.66455  	-1.12892  	63.06718  	67.55184  	-15491.42025  	-4203.86771  	0.00434  	0.00003  	0.00423  	0.00427  	0.00503  	0.00000  	0.00000  
263.34888  	22.99382  	5.07073  	5.29884  	14.58140  	-1.18512  	0.01341  	0.22903  	0.21221  	-3.02442  	0.07223  	-0.08569  	-106.68069  	-1.13092  	62.63235  	67.59649  	-15491.55688  	-4203.88487  	0.00434  	0.00003  	0.00423  	0.00426  	0.00503  	0.00000  	0.00000  
264.35220  	22.98755  	5.07119  	5.29860  	14.58066  	-1.18512  	0.01263  	0.22847  	0.21171  	-3.02442  	0.07183  	-0.08568  	-106.61042  	-1.12740  	62.48469  	67.43184  	-15490.18601  	-4203.89819  	0.00434  	0.00003  	0.00423  	0.00424  	0.00503  	0.00000  	0.00000  
265.35551  	22.99031  	5.07059  	5.29926  	14.57936  	-1.18512  	0.01375  	0.22876  	0.21480  	-3.02442  	0.07288  	-0.08571  	-106.66207  	-1.13369  	63.39728  	67.51702  	-15490.47213  	-4203.90160  	0.00434  	0.00003  	0.00423  	0.00426  	0.00503  	0.00000  	0.00000  
266.35683  	22.99065  	5.07031  	5.29755  	14.57814  	-1.18512  	0.01364  	0.22832  	0.20946  	-3.02442  	0.07214  	-0.08566  	-106.68181  	-1.12661  	61.82088  	67.38722  	-15490.30035  	-4203.78281  	0.00434  	0.00003  	0.00423  	0.00426  	0.00503  	0.00000  	0.00000  
267.36012  	22.99536  	5.07017  	5.29693  	14.57619  	-1.18512  	0.01301  	0.22716  	0.21255  	-3.02442  	0.07097  	-0.08563  	-106.76629  	-1.12422  	62.73225  	67.04439  	-15490.83720  	-4203.73683  	0.00434  	0.00003  	0.00423  	0.00425  	0.00502  	0.00000  	0.00000  
268.36147  	22.98867  	5.07008  	5.29682  	14.57524  	-1.18512  	0.01426  	0.22670  	0.21012  	-3.02442  	0.07423  	-0.08573  	-106.69348  	-1.12411  	62.01571  	66.90720  	-15489.34503  	-4203.72493  	0.00434  	0.00003  	0.00424  	0.00427  	0.00502  	0.00000  	0.00000  
269.36277  	22.98990  	5.06868  	5.29612  	14.57219  	-1.18512  	0.01269  	0.22850  	0.21075  	-3.02442  	0.07264  	-0.08570  	-106.74783  	-1.12760  	62.20005  	67.43862  	-15488.99012  	-4203.59898  	0.00434  	0.00003  	0.00423  	0.00424  	0.00503  	0.00000  	0.00000  
270.36508  	22.98943  	5.07012  	5.29615  	14.57101  	-1.18512  	0.01267  	0.22826  	0.21406  	-3.02442  	0.07171  	-0.08571  	-106.75681  	-1.12061  	63.17783  	67.36717  	-15488.66654  	-4203.68740  	0.00434  	0.00003  	0.00423  	0.00424  	0.00503  	0.00000  	0.00000  
271.36843  	22.98706  	5.06855  	5.29585  	14.56923  	-1.18512  	0.01456  	0.23114  	0.21513  	-3.02442  	0.07176  	-0.08570  	-106.74933  	-1.12691  	63.49396  	68.21778  	-15487.85659  	-4203.57557  	0.00434  	0.00003  	0.00423  	0.00428  	0.00504  	0.00000  	0.00000  
272.36977  	22.99054  	5.06923  	5.29659  	14.56679  	-1.18512  	0.01328  	0.23016  	0.21551  	-3.02442  	0.07433  	-0.08568  	-106.82446  	-1.12718  	63.60432  	67.92872  	-15488.05949  	-4203.66070  	0.00434  	0.00003  	0.00424  	0.00426  	0.00504  	0.00000  	0.00000  
273.37207  	22.98717  	5.06985  	5.29681  	14.56576  	-1.18512  	0.01354  	0.23209  	0.21370  	-3.02442  	0.07122  	-0.08571  	-106.79462  	-1.12521  	63.07053  	68.49924  	-15487.19928  	-4203.71070  	0.00434  	0.00003  	0.00423  	0.00426  	0.00504  	0.00000  	0.00000  
274.37538  	22.98712  	5.07061  	5.29710  	14.56539  	-1.18512  	0.01369  	0.23040  	0.21897  	-3.02442  	0.07063  	-0.08565  	-106.79884  	-1.12284  	64.62590  	68.00137  	-15487.11703  	-4203.77348  	0.00435  	0.00003  	0.00423  	0.00426  	0.00504  	0.00000  	0.00000  
275.37870  	22.98991  	5.06962  	5.29715  	14.56553  	-1.18512  	0.01395  	0.23340  	0.21419  	-3.02442  	0.07328  	-0.08572  	-106.83243  	-1.12803  	63.21442  	68.88547  	-15487.68909  	-4203.71710  	0.00434  	0.00003  	0.00423  	0.00427  	0.00505  	0.00000  	0.00000  
276.37905  	22.99012  	5.06990  	5.29772  	14.56577  	-1.18512  	0.01354  	0.23282  	0.21690  	-3.02442  	0.07289  	-0.08570  	-106.83198  	-1.12946  	64.01466  	68.71415  	-15487.77752  	-4203.76842  	0.00435  	0.00003  	0.00423  	0.00426  	0.00505  	0.00000  	0.00000  
277.38237  	22.99136  	5.06986  	5.29832  	14.56556  	-1.18512  	0.01426  	0.23305  	0.21697  	-3.02442  	0.07181  	-0.08568  	-106.85031  	-1.13265  	64.03627  	68.78203  	-15487.97904  	-4203.80195  	0.00435  	0.00003  	0.00423  	0.00427  	0.00505  	0.00000  	0.00000  
278.38568  	22.98662  	5.07055  	5.29879  	14.56719  	-1.18512  	0.01518  	0.23343  	0.21549  	-3.02442  	0.07443  	-0.08565  	-106.76944  	-1.13157  	63.59809  	68.89493  	-15487.37120  	-4203.87169  	0.00434  	0.00003  	0.00424  	0.00429  	0.00505  	0.00000  	0.00000  
279.38698  	22.98674  	5.07145  	5.29944  	14.56721  	-1.18512  	0.01384  	0.23316  	0.21674  	-3.02442  	0.07384  	-0.08570  	-106.77078  	-1.13032  	63.96763  	68.81605  	-15487.39986  	-4203.96428  	0.00435  	0.00003  	0.00424  	0.00427  	0.00505  	0.00000  	0.00000  
280.39032  	22.98827  	5.07117  	5.29911  	14.56863  	-1.18512  	0.01355  	0.23225  	0.21747  	-3.02442  	0.07297  	-0.08566  	-106.77213  	-1.13005  	64.18293  	68.54512  	-15487.97518  	-4203.92731  	0.00435  	0.00003  	0.00423  	0.00426  	0.00505  	0.00000  	0.00000  
281.39361  	22.98464  	5.07108  	5.29922  	14.57124  	-1.18512  	0.01394  	0.23332  	0.21728  	-3.02442  	0.07201  	-0.08570  	-106.69308  	-1.13106  	64.12882  	68.86205  	-15487.77418  	-4203.92840  	0.00435  	0.00003  	0.00423  	0.00427  	0.00505  	0.00000  	0.00000  
282.39496  	22.98467  	5.07171  	5.29938  	14.57123  	-1.18512  	0.01419  	0.23406  	0.21560  	-3.02442  	0.07254  	-0.08573  	-106.69362  	-1.12873  	63.63152  	69.08091  	-15487.77910  	-4203.97574  	0.00434  	0.00003  	0.00423  	0.00427  	0.00505  	0.00000  	0.00000  
283.39825  	22.99193  	5.07113  	5.29914  	14.57304  	-1.18512  	0.01499  	0.23344  	0.21683  	-3.02442  	0.07206  	-0.08569  	-106.76265  	-1.13043  	63.99523  	68.89664  	-15489.55196  	-4203.92706  	0.00435  	0.00003  	0.00423  	0.00429  	0.00505  	0.00000  	0.00000  
284.40159  	22.98989  	5.07079  	5.29885  	14.57480  	-1.18512  	0.01312  	0.23230  	0.21736  	-3.02442  	0.07201  	-0.08559  	-106.71442  	-1.13066  	64.15224  	68.56030  	-15489.49762  	-4203.88974  	0.00435  	0.00003  	0.00423  	0.00425  	0.00505  	0.00000  	0.00000  
285.40288  	22.99363  	5.06970  	5.29838  	14.57605  	-1.18512  	0.01352  	0.23176  	0.21623  	-3.02442  	0.07208  	-0.08568  	-106.74615  	-1.13372  	63.81656  	68.40149  	-15490.47215  	-4203.79585  	0.00435  	0.00003  	0.00423  	0.00426  	0.00504  	0.00000  	0.00000  
286.40620  	22.99432  	5.07023  	5.29927  	14.57733  	-1.18512  	0.01281  	0.23257  	0.21731  	-3.02442  	0.07061  	-0.08571  	-106.73866  	-1.13551  	64.13797  	68.64187  	-15490.85852  	-4203.88128  	0.00435  	0.00003  	0.00423  	0.00425  	0.00505  	0.00000  	0.00000  
287.40954  	22.99299  	5.06994  	5.29806  	14.57886  	-1.18512  	0.01404  	0.23206  	0.21683  	-3.02442  	0.07335  	-0.08572  	-106.70236  	-1.13095  	63.99374  	68.49027  	-15490.89637  	-4203.79065  	0.00435  	0.00003  	0.00423  	0.00427  	0.00504  	0.00000  	0.00000  
288.41087  	22.99556  	5.06945  	5.29810  	14.57904  	-1.18512  	0.01346  	0.23213  	0.21660  	-3.02442  	0.07363  	-0.08573  	-106.73272  	-1.13358  	63.92722  	68.51093  	-15491.43616  	-4203.76359  	0.00435  	0.00003  	0.00424  	0.00426  	0.00504  	0.00000  	0.00000  
289.41418  	23.00437  	5.06873  	5.29694  	14.57992  	-1.18512  	0.01355  	0.23126  	0.21418  	-3.02442  	0.07328  	-0.08570  	-106.83334  	-1.13140  	63.21140  	68.25481  	-15493.32947  	-4203.65142  	0.00434  	0.00003  	0.00423  	0.00426  	0.00504  	0.00000  	0.00000  
290.41750  	22.99556  	5.06946  	5.29717  	14.58092  	-1.18512  	0.01467  	0.23265  	0.21600  	-3.02442  	0.07421  	-0.08568  	-106.70890  	-1.12891  	63.75069  	68.66484  	-15491.80406  	-4203.70891  	0.00435  	0.00003  	0.00424  	0.00428  	0.00505  	0.00000  	0.00000  
291.41880  	22.99352  	5.06875  	5.29676  	14.58098  	-1.18512  	0.01372  	0.23175  	0.21746  	-3.02442  	0.07293  	-0.08571  	-106.68232  	-1.13044  	64.18079  	68.39844  	-15491.41670  	-4203.64175  	0.00435  	0.00003  	0.00423  	0.00426  	0.00504  	0.00000  	0.00000  
292.42214  	22.99239  	5.06907  	5.29608  	14.58156  	-1.18512  	0.01411  	0.23096  	0.21372  	-3.02442  	0.07344  	-0.08570  	-106.66059  	-1.12548  	63.07686  	68.16616  	-15491.30824  	-4203.62058  	0.00434  	0.00003  	0.00423  	0.00427  	0.00504  	0.00000  	0.00000  
293.42543  	22.99623  	5.06904  	5.29555  	14.58315  	-1.18512  	0.01427  	0.23217  	0.21502  	-3.02442  	0.07201  	-0.08572  	-106.68913  	-1.12294  	63.46091  	68.52198  	-15492.36960  	-4203.58674  	0.00434  	0.00003  	0.00423  	0.00427  	0.00504  	0.00000  	0.00000  
294.42578  	22.99359  	5.06916  	5.29615  	14.58208  	-1.18512  	0.01347  	0.23075  	0.21273  	-3.02442  	0.07295  	-0.08569  	-106.66923  	-1.12535  	62.78407  	68.10217  	-15491.64553  	-4203.62939  	0.00434  	0.00003  	0.00423  	0.00426  	0.00504  	0.00000  	0.00000  
295.42910  	22.99637  	5.06899  	5.29585  	14.58188  	-1.18512  	0.01315  	0.23166  	0.21633  	-3.02442  	0.07198  	-0.08570  	-106.70694  	-1.12469  	63.84742  	68.37096  	-15492.14931  	-4203.60140  	0.00435  	0.00003  	0.00423  	0.00425  	0.00504  	0.00000  	0.00000  
296.43142  	22.99510  	5.06908  	5.29653  	14.58287  	-1.18512  	0.01289  	0.23168  	0.21753  	-3.02442  	0.07380  	-0.08567  	-106.67826  	-1.12765  	64.20250  	68.37839  	-15492.09457  	-4203.64806  	0.00435  	0.00003  	0.00424  	0.00425  	0.00504  	0.00000  	0.00000  
297.43277  	22.99905  	5.06954  	5.29628  	14.58238  	-1.18512  	0.01320  	0.23067  	0.21234  	-3.02442  	0.07251  	-0.08573  	-106.73455  	-1.12411  	62.67119  	68.07912  	-15492.77040  	-4203.66042  	0.00434  	0.00003  	0.00423  	0.00425  	0.00504  	0.00000  	0.00000  
298.43509  	22.99558  	5.07002  	5.29681  	14.58234  	-1.18512  	0.01446  	0.22957  	0.21791  	-3.02442  	0.07306  	-0.08573  	-106.69119  	-1.12437  	64.31259  	67.75523  	-15492.08343  	-4203.72091  	0.00435  	0.00003  	0.00423  	0.00428  	0.00503  	0.00000  	0.00000  
299.43840  	22.99643  	5.07001  	5.29752  	14.58210  	-1.18512  	0.01416  	0.23004  	0.21817  	-3.02442  	0.07487  	-0.08568  	-106.70496  	-1.12798  	64.38950  	67.89520  	-15492.20257  	-4203.76288  	0.00435  	0.00003  	0.00424  	0.00427  	0.00504  	0.00000  	0.00000  
300.43972  	22.99638  	5.07007  	5.29773  	14.58149  	-1.18512  	0.01263  	0.22979  	0.21440  	-3.02442  	0.07442  	-0.08563  	-106.71211  	-1.12864  	63.27641  	67.81900  	-15492.07470  	-4203.77900  	0.00434  	0.00003  	0.00424  	0.00424  	0.00503  	0.00000  	0.00000  
301.44105  	22.99422  	5.06961  	5.29842  	14.58037  	-1.18512  	0.01292  	0.22801  	0.21004  	-3.02442  	0.07234  	-0.08564  	-106.69876  	-1.13438  	61.99104  	67.29497  	-15491.43327  	-4203.79300  	0.00434  	0.00003  	0.00423  	0.00425  	0.00503  	0.00000  	0.00000  
302.44436  	22.99815  	5.07028  	5.29812  	14.58061  	-1.18512  	0.01425  	0.22867  	0.21352  	-3.02442  	0.07316  	-0.08571  	-106.74549  	-1.12958  	63.01935  	67.48902  	-15492.24826  	-4203.81533  	0.00434  	0.00003  	0.00423  	0.00427  	0.00503  	0.00000  	0.00000  
303.44768  	22.99783  	5.07107  	5.29864  	14.57894  	-1.18512  	0.01442  	0.22784  	0.21379  	-3.02442  	0.07347  	-0.08568  	-106.76275  	-1.12824  	63.09629  	67.24540  	-15491.85849  	-4203.89361  	0.00434  	0.00003  	0.00424  	0.00428  	0.00502  	0.00000  	0.00000  
304.44902  	23.00066  	5.07230  	5.29821  	14.57753  	-1.18512  	0.01309  	0.22744  	0.21362  	-3.02442  	0.07376  	-0.08570  	-106.81648  	-1.11997  	63.04641  	67.12768  	-15492.13747  	-4203.94157  	0.00434  	0.00003  	0.00424  	0.00425  	0.00502  	0.00000  	0.00000  
305.45236  	22.99440  	5.07124  	5.29918  	14.57563  	-1.18512  	0.01324  	0.22650  	0.21208  	-3.02442  	0.07152  	-0.08568  	-106.76116  	-1.13009  	62.59236  	66.84986  	-15490.54171  	-4203.93602  	0.00434  	0.00003  	0.00423  	0.00425  	0.00502  	0.00000  	0.00000  
306.45565  	22.99410  	5.07139  	5.29957  	14.57466  	-1.18512  	0.01454  	0.22758  	0.21056  	-3.02442  	0.07302  	-0.08571  	-106.76957  	-1.13125  	62.14463  	67.16892  	-15490.29265  	-4203.96847  	0.00434  	0.00003  	0.00423  	0.00428  	0.00502  	0.00000  	0.00000  
307.45700  	22.99613  	5.07094  	5.29802  	14.57268  	-1.18512  	0.01401  	0.22783  	0.21241  	-3.02442  	0.07241  	-0.08570  	-106.82046  	-1.12579  	62.68975  	67.24057  	-15490.30273  	-4203.84884  	0.00434  	0.00003  	0.00423  	0.00427  	0.00502  	0.00000  	0.00000  
308.46032  	22.99844  	5.07009  	5.29773  	14.57027  	-1.18512  	0.01396  	0.22979  	0.21296  	-3.02442  	0.07472  	-0.08569  	-106.88041  	-1.12857  	62.85173  	67.82107  	-15490.28241  	-4203.78025  	0.00434  	0.00003  	0.00424  	0.00427  	0.00503  	0.00000  	0.00000  
309.46366  	22.99465  	5.07019  	5.29671  	14.56872  	-1.18512  	0.01403  	0.23070  	0.21354  	-3.02442  	0.07255  	-0.08568  	-106.85197  	-1.12302  	63.02449  	68.08864  	-15489.23933  	-4203.72524  	0.00434  	0.00003  	0.00423  	0.00427  	0.00504  	0.00000  	0.00000  
310.46496  	22.99408  	5.06925  	5.29528  	14.56689  	-1.18512  	0.01304  	0.23080  	0.21634  	-3.02442  	0.07213  	-0.08569  	-106.86814  	-1.12060  	63.84968  	68.11930  	-15488.77050  	-4203.58336  	0.00435  	0.00003  	0.00423  	0.00425  	0.00504  	0.00000  	0.00000  
