10/23/2024 10:41:54Time	T_hot_in(C)	T_cold_in(C)	T_cold_out(C)	T_hot_out(C)	mdot_cold(kg/s)	ASFASIFUAS(kg/s)	Diferencial_cold(bar)	Diferencial_hot(bar)	mdot_hot(kg/s)	ABS_cold(bar)	ABS_hot(bar)	q_cold(kW)	q_hot(kW)	ASFASYFY	Tau_cold_haste	Re_hot	Re_cold	U_global	PSIG_cold(bar)	R_fouling	PSIG_hot(bar)	PSID_hot(bar)	m_dot_hot	PSID_cold(bar)	m_dot_cold
1.74835  	0.00000  	0.00000  	0.00000  	0.00000  	-1.18512  	-0.20833  	-0.86278  	-2.50000  	-3.02442  	-1.25000  	-0.08628  	-0.00000  	-0.00000  	-737.84722  	-254.63905  	-9234.48090  	-3618.55272  	0.00000  	0.00000  	0.00000  	0.00000  	0.00000  	0.00000  	0.00000  
2.75167  	23.05586  	5.07191  	5.30715  	15.14484  	-1.18512  	0.01611  	0.29445  	0.28109  	-3.02442  	0.07353  	-0.08564  	-100.32198  	-1.16627  	82.95914  	86.90236  	-15614.09310  	-4204.45354  	0.00445  	0.00003  	0.00424  	0.00431  	0.00533  	0.00000  	0.00000  
3.75202  	23.06753  	5.07142  	5.30760  	15.14544  	-1.18512  	0.01624  	0.29362  	0.28098  	-3.02442  	0.07420  	-0.08569  	-100.46239  	-1.17092  	82.92685  	86.65950  	-15616.50117  	-4204.45168  	0.00445  	0.00003  	0.00424  	0.00431  	0.00533  	0.00000  	0.00000  
4.75530  	23.06612  	5.07049  	5.30794  	15.14575  	-1.18512  	0.01646  	0.29363  	0.27730  	-3.02442  	0.07262  	-0.08569  	-100.44055  	-1.17722  	81.84135  	86.66187  	-15616.28563  	-4204.41634  	0.00444  	0.00003  	0.00423  	0.00432  	0.00533  	0.00000  	0.00000  
5.75865  	23.06214  	5.07002  	5.30725  	15.14595  	-1.18512  	0.01533  	0.29414  	0.27916  	-3.02442  	0.07284  	-0.08565  	-100.38767  	-1.17611  	82.39223  	86.81241  	-15615.54331  	-4204.34661  	0.00445  	0.00003  	0.00423  	0.00429  	0.00533  	0.00000  	0.00000  
6.75997  	23.06272  	5.06931  	5.30664  	15.14637  	-1.18512  	0.01667  	0.29308  	0.27708  	-3.02442  	0.07376  	-0.08574  	-100.38970  	-1.17662  	81.77805  	86.50004  	-15615.74142  	-4204.26728  	0.00444  	0.00003  	0.00424  	0.00432  	0.00533  	0.00000  	0.00000  
7.76169  	23.06004  	5.06928  	5.30623  	15.14608  	-1.18512  	0.01538  	0.29349  	0.27469  	-3.02442  	0.07123  	-0.08571  	-100.35938  	-1.17472  	81.07218  	86.62102  	-15615.15542  	-4204.24081  	0.00444  	0.00003  	0.00423  	0.00430  	0.00533  	0.00000  	0.00000  
8.76398  	23.06088  	5.06903  	5.30520  	15.14638  	-1.18512  	0.01623  	0.29500  	0.27229  	-3.02442  	0.07163  	-0.08562  	-100.36634  	-1.17087  	80.36371  	87.06611  	-15615.38128  	-4204.16450  	0.00444  	0.00003  	0.00423  	0.00431  	0.00533  	0.00000  	0.00000  
9.76733  	23.06339  	5.06841  	5.30409  	15.14694  	-1.18512  	0.01645  	0.29191  	0.27720  	-3.02442  	0.07323  	-0.08562  	-100.39105  	-1.16847  	81.81121  	86.15299  	-15615.98478  	-4204.06079  	0.00444  	0.00003  	0.00423  	0.00432  	0.00532  	0.00000  	0.00000  
10.77064  	23.05941  	5.06778  	5.30461  	15.14581  	-1.18512  	0.01570  	0.29193  	0.27783  	-3.02442  	0.07207  	-0.08566  	-100.35489  	-1.17417  	81.99770  	86.15983  	-15614.97834  	-4204.05407  	0.00444  	0.00003  	0.00423  	0.00430  	0.00532  	0.00000  	0.00000  
11.77099  	23.06128  	5.06857  	5.30392  	15.14594  	-1.18512  	0.01655  	0.29208  	0.27185  	-3.02442  	0.07238  	-0.08566  	-100.37696  	-1.16677  	80.23354  	86.20512  	-15615.37206  	-4204.05994  	0.00443  	0.00003  	0.00423  	0.00432  	0.00532  	0.00000  	0.00000  
12.77431  	23.05784  	5.06883  	5.30370  	15.14489  	-1.18512  	0.01663  	0.29112  	0.27298  	-3.02442  	0.07408  	-0.08571  	-100.34662  	-1.16443  	80.56584  	85.92046  	-15614.48997  	-4204.06254  	0.00444  	0.00003  	0.00424  	0.00432  	0.00532  	0.00000  	0.00000  
13.77763  	23.05663  	5.06901  	5.30363  	15.14356  	-1.18512  	0.01553  	0.29002  	0.27500  	-3.02442  	0.07323  	-0.08569  	-100.34814  	-1.16320  	81.16402  	85.59554  	-15613.99176  	-4204.06909  	0.00444  	0.00003  	0.00423  	0.00430  	0.00531  	0.00000  	0.00000  
14.77892  	23.05758  	5.06864  	5.30337  	15.14264  	-1.18512  	0.01459  	0.28915  	0.27164  	-3.02442  	0.07222  	-0.08573  	-100.37187  	-1.16371  	80.17257  	85.33864  	-15613.99817  	-4204.03127  	0.00443  	0.00003  	0.00423  	0.00428  	0.00531  	0.00000  	0.00000  
15.78226  	23.06248  	5.06837  	5.30420  	15.14209  	-1.18512  	0.01495  	0.28884  	0.27297  	-3.02442  	0.07121  	-0.08564  	-100.44100  	-1.16916  	80.56533  	85.24894  	-15614.85153  	-4204.06508  	0.00444  	0.00003  	0.00423  	0.00429  	0.00531  	0.00000  	0.00000  
16.78555  	23.06606  	5.06908  	5.30470  	15.13979  	-1.18512  	0.01541  	0.28716  	0.27101  	-3.02442  	0.07351  	-0.08570  	-100.51552  	-1.16809  	79.98589  	84.75233  	-15615.10499  	-4204.13733  	0.00443  	0.00003  	0.00424  	0.00430  	0.00530  	0.00000  	0.00000  
17.78687  	23.06164  	5.06923  	5.30463  	15.13772  	-1.18512  	0.01635  	0.28738  	0.27126  	-3.02442  	0.07310  	-0.08563  	-100.48562  	-1.16702  	80.05964  	84.81841  	-15613.82966  	-4204.14182  	0.00443  	0.00003  	0.00423  	0.00431  	0.00530  	0.00000  	0.00000  
18.79022  	23.05740  	5.06981  	5.30478  	15.13533  	-1.18512  	0.01594  	0.28938  	0.27626  	-3.02442  	0.07377  	-0.08574  	-100.46220  	-1.16491  	81.53542  	85.40821  	-15612.52771  	-4204.18633  	0.00444  	0.00002  	0.00424  	0.00431  	0.00531  	0.00000  	0.00000  
19.79350  	23.05677  	5.06970  	5.30381  	15.13420  	-1.18512  	0.01547  	0.28977  	0.27508  	-3.02442  	0.07296  	-0.08569  	-100.46867  	-1.16061  	81.18811  	85.52374  	-15612.18352  	-4204.12123  	0.00444  	0.00003  	0.00423  	0.00430  	0.00531  	0.00000  	0.00000  
20.79485  	23.05601  	5.06939  	5.30459  	15.13179  	-1.18512  	0.01610  	0.29220  	0.27667  	-3.02442  	0.07267  	-0.08566  	-100.48955  	-1.16604  	81.65706  	86.24079  	-15611.55910  	-4204.14915  	0.00444  	0.00003  	0.00423  	0.00431  	0.00532  	0.00000  	0.00000  
21.79817  	23.05436  	5.06953  	5.30470  	15.13066  	-1.18512  	0.01506  	0.29352  	0.27765  	-3.02442  	0.07387  	-0.08569  	-100.48289  	-1.16589  	81.94598  	86.62861  	-15611.01418  	-4204.16460  	0.00444  	0.00003  	0.00424  	0.00429  	0.00533  	0.00000  	0.00000  
22.80149  	23.05457  	5.06861  	5.30494  	15.13009  	-1.18512  	0.01564  	0.29389  	0.27792  	-3.02442  	0.07173  	-0.08569  	-100.49281  	-1.17164  	82.02520  	86.73952  	-15610.94351  	-4204.12401  	0.00444  	0.00003  	0.00423  	0.00430  	0.00533  	0.00000  	0.00000  
23.80183  	23.05560  	5.06869  	5.30438  	15.12909  	-1.18512  	0.01562  	0.29424  	0.27989  	-3.02442  	0.07306  	-0.08574  	-100.51861  	-1.16848  	82.60721  	86.84057  	-15610.94905  	-4204.09476  	0.00445  	0.00003  	0.00423  	0.00430  	0.00533  	0.00000  	0.00000  
24.80515  	23.05350  	5.06900  	5.30442  	15.12781  	-1.18512  	0.01573  	0.29606  	0.28214  	-3.02442  	0.07180  	-0.08571  	-100.50815  	-1.16714  	83.27005  	87.37975  	-15610.28672  	-4204.11534  	0.00445  	0.00003  	0.00423  	0.00430  	0.00534  	0.00000  	0.00000  
25.80847  	23.06175  	5.06876  	5.30426  	15.12860  	-1.18512  	0.01623  	0.29586  	0.28077  	-3.02442  	0.07298  	-0.08572  	-100.60283  	-1.16758  	82.86740  	87.32082  	-15612.06020  	-4204.09181  	0.00445  	0.00003  	0.00423  	0.00431  	0.00534  	0.00000  	0.00000  
26.80979  	23.05555  	5.06813  	5.30405  	15.12878  	-1.18512  	0.01635  	0.29767  	0.27568  	-3.02442  	0.07240  	-0.08574  	-100.52194  	-1.16960  	81.36409  	87.85435  	-15610.87969  	-4204.04129  	0.00444  	0.00003  	0.00423  	0.00431  	0.00535  	0.00000  	0.00000  
27.81311  	23.04581  	5.06801  	5.30317  	15.12961  	-1.18512  	0.01345  	0.29662  	0.28408  	-3.02442  	0.07017  	-0.08563  	-100.38779  	-1.16584  	83.84316  	87.54264  	-15609.13043  	-4203.98161  	0.00445  	0.00003  	0.00422  	0.00426  	0.00534  	0.00000  	0.00000  
28.81645  	23.05613  	5.06728  	5.30227  	15.12978  	-1.18512  	0.01590  	0.29784  	0.28143  	-3.02442  	0.07246  	-0.08572  	-100.51669  	-1.16503  	83.06081  	87.90450  	-15611.18804  	-4203.88378  	0.00445  	0.00003  	0.00423  	0.00431  	0.00535  	0.00000  	0.00000  
29.81777  	23.05162  	5.06630  	5.30062  	15.13087  	-1.18512  	0.01618  	0.29744  	0.28230  	-3.02442  	0.07206  	-0.08571  	-100.44572  	-1.16168  	83.31632  	87.78583  	-15610.51890  	-4203.72635  	0.00445  	0.00003  	0.00423  	0.00431  	0.00535  	0.00000  	0.00000  
30.82109  	23.05731  	5.06646  	5.29975  	15.13133  	-1.18512  	0.01539  	0.29812  	0.28315  	-3.02442  	0.07210  	-0.08573  	-100.51200  	-1.15654  	83.56932  	87.98734  	-15611.72530  	-4203.68391  	0.00445  	0.00003  	0.00423  	0.00430  	0.00535  	0.00000  	0.00000  
31.82341  	23.05135  	5.06638  	5.29934  	15.13286  	-1.18512  	0.01650  	0.29773  	0.28608  	-3.02442  	0.07462  	-0.08568  	-100.41700  	-1.15492  	84.43237  	87.87222  	-15610.85640  	-4203.65475  	0.00446  	0.00003  	0.00424  	0.00432  	0.00535  	0.00000  	0.00000  
32.82473  	23.05377  	5.06488  	5.30043  	15.13534  	-1.18512  	0.01523  	0.29707  	0.28066  	-3.02442  	0.07102  	-0.08565  	-100.41624  	-1.16781  	82.83408  	87.67592  	-15611.81802  	-4203.62983  	0.00445  	0.00003  	0.00423  	0.00429  	0.00534  	0.00000  	0.00000  
33.82804  	23.05414  	5.06468  	5.30118  	15.13617  	-1.18512  	0.01527  	0.29642  	0.28081  	-3.02442  	0.07402  	-0.08569  	-100.41045  	-1.17250  	82.87860  	87.48537  	-15612.05198  	-4203.66283  	0.00445  	0.00003  	0.00424  	0.00429  	0.00534  	0.00000  	0.00000  
34.83333  	23.05131  	5.06571  	5.30081  	15.13756  	-1.18512  	0.01549  	0.29647  	0.27960  	-3.02442  	0.07229  	-0.08576  	-100.35700  	-1.16557  	82.52231  	87.50104  	-15611.76992  	-4203.70260  	0.00445  	0.00002  	0.00423  	0.00430  	0.00534  	0.00000  	0.00000  
35.83470  	23.05473  	5.06489  	5.30093  	15.13844  	-1.18512  	0.01599  	0.29578  	0.27974  	-3.02442  	0.07278  	-0.08567  	-100.38920  	-1.17025  	82.56347  	87.29662  	-15612.61488  	-4203.66038  	0.00445  	0.00003  	0.00423  	0.00431  	0.00534  	0.00000  	0.00000  
36.83603  	23.05671  	5.06576  	5.30085  	15.13924  	-1.18512  	0.01550  	0.29583  	0.27900  	-3.02442  	0.07128  	-0.08574  	-100.40405  	-1.16551  	82.34512  	87.30953  	-15613.15965  	-4203.70813  	0.00445  	0.00003  	0.00423  	0.00430  	0.00534  	0.00000  	0.00000  
37.83934  	23.05885  	5.06614  	5.30098  	15.13943  	-1.18512  	0.01624  	0.29482  	0.27931  	-3.02442  	0.07235  	-0.08566  	-100.42880  	-1.16426  	82.43670  	87.01280  	-15613.61909  	-4203.73823  	0.00445  	0.00003  	0.00423  	0.00431  	0.00533  	0.00000  	0.00000  
38.84266  	23.05470  	5.06637  	5.30169  	15.14121  	-1.18512  	0.01561  	0.29603  	0.28064  	-3.02442  	0.07227  	-0.08570  	-100.35361  	-1.16665  	82.82702  	87.37109  	-15613.15180  	-4203.79469  	0.00445  	0.00003  	0.00423  	0.00430  	0.00534  	0.00000  	0.00000  
39.84400  	23.05007  	5.06607  	5.30174  	15.14122  	-1.18512  	0.01592  	0.29323  	0.27965  	-3.02442  	0.07331  	-0.08572  	-100.29483  	-1.16838  	82.53705  	86.54391  	-15612.24594  	-4203.78002  	0.00445  	0.00003  	0.00423  	0.00431  	0.00533  	0.00000  	0.00000  
40.84732  	23.05467  	5.06661  	5.30222  	15.14269  	-1.18512  	0.01513  	0.29448  	0.27726  	-3.02442  	0.07282  	-0.08566  	-100.33450  	-1.16805  	81.83142  	86.91118  	-15613.43697  	-4203.84092  	0.00444  	0.00003  	0.00423  	0.00429  	0.00533  	0.00000  	0.00000  
41.85063  	23.05976  	5.06620  	5.30216  	15.14213  	-1.18512  	0.01622  	0.29428  	0.27880  	-3.02442  	0.07229  	-0.08565  	-100.40604  	-1.16981  	82.28464  	86.85373  	-15614.32726  	-4203.81247  	0.00445  	0.00003  	0.00423  	0.00431  	0.00533  	0.00000  	0.00000  
42.85195  	23.04932  	5.06615  	5.30242  	15.14240  	-1.18512  	0.01655  	0.29266  	0.27985  	-3.02442  	0.07373  	-0.08566  	-100.27032  	-1.17139  	82.59382  	86.37656  	-15612.33020  	-4203.82501  	0.00445  	0.00003  	0.00424  	0.00432  	0.00532  	0.00000  	0.00000  
43.85527  	23.06021  	5.06614  	5.30303  	15.14232  	-1.18512  	0.01633  	0.29349  	0.27233  	-3.02442  	0.07391  	-0.08573  	-100.40931  	-1.17446  	80.37559  	86.62042  	-15614.45147  	-4203.86121  	0.00444  	0.00003  	0.00424  	0.00431  	0.00533  	0.00000  	0.00000  
44.85756  	23.06158  	5.06674  	5.30329  	15.14221  	-1.18512  	0.01577  	0.29207  	0.27547  	-3.02442  	0.07237  	-0.08569  	-100.42810  	-1.17276  	81.30320  	86.20049  	-15614.70052  	-4203.91253  	0.00444  	0.00003  	0.00423  	0.00430  	0.00532  	0.00000  	0.00000  
45.85891  	23.05700  	5.06608  	5.30383  	15.14165  	-1.18512  	0.01489  	0.29105  	0.27611  	-3.02442  	0.07259  	-0.08567  	-100.37711  	-1.17870  	81.49201  	85.90018  	-15613.68963  	-4203.90562  	0.00444  	0.00003  	0.00423  	0.00429  	0.00532  	0.00000  	0.00000  
46.86120  	23.06544  	5.06642  	5.30303  	15.14157  	-1.18512  	0.01562  	0.29111  	0.27226  	-3.02442  	0.07333  	-0.08573  	-100.48517  	-1.17306  	80.35491  	85.91864  	-15615.33054  	-4203.87818  	0.00444  	0.00003  	0.00423  	0.00430  	0.00532  	0.00000  	0.00000  
47.86452  	23.05931  	5.06633  	5.30268  	15.14042  	-1.18512  	0.01655  	0.29042  	0.27187  	-3.02442  	0.07382  	-0.08570  	-100.42206  	-1.17177  	80.23932  	85.71477  	-15613.90287  	-4203.85151  	0.00443  	0.00003  	0.00424  	0.00432  	0.00531  	0.00000  	0.00000  
48.86587  	23.05949  	5.06675  	5.30180  	15.14044  	-1.18512  	0.01498  	0.28964  	0.27056  	-3.02442  	0.07114  	-0.08567  	-100.42412  	-1.16533  	79.85203  	85.48488  	-15613.94032  	-4203.82411  	0.00443  	0.00003  	0.00423  	0.00429  	0.00531  	0.00000  	0.00000  
49.86919  	23.06211  	5.06659  	5.30233  	15.13851  	-1.18512  	0.01614  	0.28772  	0.27347  	-3.02442  	0.07189  	-0.08573  	-100.48186  	-1.16874  	80.71197  	84.91600  	-15614.07649  	-4203.84645  	0.00444  	0.00003  	0.00423  	0.00431  	0.00530  	0.00000  	0.00000  
50.87250  	23.06246  	5.06610  	5.30212  	15.13756  	-1.18512  	0.01549  	0.28713  	0.27065  	-3.02442  	0.07223  	-0.08576  	-100.49830  	-1.17015  	79.88049  	84.74415  	-15613.95776  	-4203.80427  	0.00443  	0.00002  	0.00423  	0.00430  	0.00530  	0.00000  	0.00000  
51.87385  	23.05957  	5.06599  	5.30120  	15.13660  	-1.18512  	0.01559  	0.28757  	0.27148  	-3.02442  	0.07369  	-0.08571  	-100.47376  	-1.16611  	80.12513  	84.87316  	-15613.20342  	-4203.74299  	0.00443  	0.00003  	0.00424  	0.00430  	0.00530  	0.00000  	0.00000  
52.87717  	23.05906  	5.06429  	5.30025  	15.13493  	-1.18512  	0.01413  	0.28948  	0.26858  	-3.02442  	0.07194  	-0.08569  	-100.48863  	-1.16981  	79.26916  	85.43812  	-15612.77546  	-4203.58345  	0.00443  	0.00003  	0.00423  	0.00427  	0.00531  	0.00000  	0.00000  
53.88048  	23.06557  	5.06434  	5.29884  	15.13292  	-1.18512  	0.01541  	0.29037  	0.27700  	-3.02442  	0.07420  	-0.08571  	-100.59669  	-1.16256  	81.75271  	85.69956  	-15613.65761  	-4203.50231  	0.00444  	0.00003  	0.00424  	0.00430  	0.00531  	0.00000  	0.00000  
54.88180  	23.06866  	5.06455  	5.29987  	15.13027  	-1.18512  	0.01409  	0.29149  	0.27743  	-3.02442  	0.07134  	-0.08567  	-100.66939  	-1.16664  	81.88135  	86.02928  	-15613.74632  	-4203.57637  	0.00444  	0.00003  	0.00423  	0.00427  	0.00532  	0.00000  	0.00000  
55.88515  	23.06341  	5.06527  	5.29976  	15.12956  	-1.18512  	0.01675  	0.29273  	0.27978  	-3.02442  	0.07497  	-0.08569  	-100.61182  	-1.16251  	82.57491  	86.39531  	-15612.57405  	-4203.61332  	0.00445  	0.00003  	0.00424  	0.00432  	0.00532  	0.00000  	0.00000  
56.88843  	23.06958  	5.06430  	5.29957  	15.12790  	-1.18512  	0.01502  	0.29311  	0.28026  	-3.02442  	0.07266  	-0.08570  	-100.71120  	-1.16641  	82.71519  	86.50694  	-15613.46104  	-4203.54374  	0.00445  	0.00003  	0.00423  	0.00429  	0.00533  	0.00000  	0.00000  
57.88978  	23.06802  	5.06412  	5.29911  	15.12744  	-1.18512  	0.01535  	0.29435  	0.28124  	-3.02442  	0.07299  	-0.08571  	-100.69725  	-1.16505  	83.00467  	86.87314  	-15613.06342  	-4203.50528  	0.00445  	0.00003  	0.00423  	0.00429  	0.00533  	0.00000  	0.00000  
58.89211  	23.06372  	5.06412  	5.29924  	15.12769  	-1.18512  	0.01454  	0.29500  	0.27890  	-3.02442  	0.07266  	-0.08560  	-100.63957  	-1.16564  	82.31285  	87.06534  	-15612.26889  	-4203.51258  	0.00445  	0.00003  	0.00423  	0.00428  	0.00533  	0.00000  	0.00000  
59.89439  	23.06446  	5.06439  	5.29891  	15.12885  	-1.18512  	0.01627  	0.29626  	0.27821  	-3.02442  	0.07319  	-0.08568  	-100.63423  	-1.16266  	82.11182  	87.43767  	-15612.64051  	-4203.50919  	0.00445  	0.00003  	0.00423  	0.00431  	0.00534  	0.00000  	0.00000  
60.89572  	23.06552  	5.06390  	5.29964  	15.12854  	-1.18512  	0.01656  	0.29580  	0.28437  	-3.02442  	0.07128  	-0.08568  	-100.65158  	-1.16873  	83.92819  	87.30193  	-15612.78917  	-4203.52333  	0.00445  	0.00003  	0.00423  	0.00432  	0.00534  	0.00000  	0.00000  
61.89806  	23.07202  	5.06410  	5.30010  	15.12882  	-1.18512  	0.01494  	0.29728  	0.28428  	-3.02442  	0.07437  	-0.08571  	-100.73037  	-1.17002  	83.90184  	87.73790  	-15614.11976  	-4203.56285  	0.00445  	0.00003  	0.00424  	0.00429  	0.00534  	0.00000  	0.00000  
62.90138  	23.05927  	5.06484  	5.30103  	15.13069  	-1.18512  	0.01558  	0.29716  	0.28293  	-3.02442  	0.07170  	-0.08574  	-100.54503  	-1.17097  	83.50484  	87.70216  	-15611.98406  	-4203.66304  	0.00445  	0.00003  	0.00423  	0.00430  	0.00534  	0.00000  	0.00000  
63.90278  	23.06317  	5.06575  	5.30231  	15.13174  	-1.18512  	0.01615  	0.29671  	0.28497  	-3.02442  	0.07300  	-0.08569  	-100.58104  	-1.17280  	84.10574  	87.56919  	-15612.95679  	-4203.79512  	0.00446  	0.00003  	0.00423  	0.00431  	0.00534  	0.00000  	0.00000  
64.90410  	23.06574  	5.06497  	5.30332  	15.13211  	-1.18512  	0.01583  	0.29843  	0.28164  	-3.02442  	0.07300  	-0.08567  	-100.60900  	-1.18167  	83.12417  	88.07909  	-15613.53378  	-4203.80829  	0.00445  	0.00003  	0.00423  	0.00430  	0.00535  	0.00000  	0.00000  
65.90739  	23.07160  	5.06488  	5.30268  	15.13438  	-1.18512  	0.01602  	0.29728  	0.27934  	-3.02442  	0.07266  	-0.08571  	-100.65459  	-1.17896  	82.44419  	87.74021  	-15615.13010  	-4203.76489  	0.00445  	0.00003  	0.00423  	0.00431  	0.00534  	0.00000  	0.00000  
66.90874  	23.07230  	5.06597  	5.30246  	15.13638  	-1.18512  	0.01555  	0.29642  	0.27829  	-3.02442  	0.07114  	-0.08562  	-100.63809  	-1.17242  	82.13279  	87.48377  	-15615.65865  	-4203.81681  	0.00445  	0.00003  	0.00423  	0.00430  	0.00534  	0.00000  	0.00000  
67.91205  	23.06731  	5.06474  	5.30297  	15.13754  	-1.18512  	0.01515  	0.29650  	0.28323  	-3.02442  	0.07210  	-0.08565  	-100.56002  	-1.18107  	83.59266  	87.50949  	-15614.90694  	-4203.77417  	0.00445  	0.00003  	0.00423  	0.00429  	0.00534  	0.00000  	0.00000  
68.91537  	23.06667  	5.06547  	5.30174  	15.13858  	-1.18512  	0.01539  	0.29644  	0.27907  	-3.02442  	0.07334  	-0.08569  	-100.53871  	-1.17138  	82.36579  	87.49205  	-15614.98533  	-4203.74370  	0.00445  	0.00003  	0.00423  	0.00430  	0.00534  	0.00000  	0.00000  
69.91766  	23.06734  	5.06555  	5.30104  	15.13921  	-1.18512  	0.01565  	0.29482  	0.27905  	-3.02442  	0.07252  	-0.08568  	-100.53925  	-1.16750  	82.35872  	87.01419  	-15615.24187  	-4203.70639  	0.00445  	0.00003  	0.00423  	0.00430  	0.00533  	0.00000  	0.00000  
70.91701  	23.06545  	5.06573  	5.30153  	15.14024  	-1.18512  	0.01604  	0.29587  	0.28096  	-3.02442  	0.07332  	-0.08565  	-100.50233  	-1.16899  	82.92310  	87.32262  	-15615.07177  	-4203.74676  	0.00445  	0.00003  	0.00423  	0.00431  	0.00534  	0.00000  	0.00000  
71.92033  	23.06889  	5.06563  	5.30115  	15.14080  	-1.18512  	0.01716  	0.29553  	0.28100  	-3.02442  	0.07409  	-0.08577  	-100.53882  	-1.16760  	82.93357  	87.22285  	-15615.85797  	-4203.71786  	0.00445  	0.00002  	0.00424  	0.00433  	0.00534  	0.00000  	0.00000  
72.92364  	23.06196  	5.06590  	5.30117  	15.14029  	-1.18512  	0.01501  	0.29397  	0.27730  	-3.02442  	0.07285  	-0.08574  	-100.45729  	-1.16637  	81.84157  	86.76139  	-15614.39715  	-4203.73528  	0.00444  	0.00003  	0.00423  	0.00429  	0.00533  	0.00000  	0.00000  
73.92397  	23.06479  	5.06545  	5.30054  	15.14162  	-1.18512  	0.01587  	0.29467  	0.27917  	-3.02442  	0.07265  	-0.08571  	-100.47634  	-1.16551  	82.39473  	86.96733  	-15615.21428  	-4203.67056  	0.00445  	0.00003  	0.00423  	0.00430  	0.00533  	0.00000  	0.00000  
74.92530  	23.06362  	5.06543  	5.30054  	15.14261  	-1.18512  	0.01632  	0.29460  	0.27894  	-3.02442  	0.07200  	-0.08566  	-100.44894  	-1.16560  	82.32568  	86.94743  	-15615.17757  	-4203.66928  	0.00445  	0.00003  	0.00423  	0.00431  	0.00533  	0.00000  	0.00000  
75.92764  	23.06774  	5.06468  	5.29976  	15.14258  	-1.18512  	0.01585  	0.29265  	0.27839  	-3.02442  	0.07298  	-0.08567  	-100.50167  	-1.16541  	82.16502  	86.37273  	-15615.97977  	-4203.57773  	0.00445  	0.00003  	0.00423  	0.00430  	0.00532  	0.00000  	0.00000  
76.92896  	23.05441  	5.06476  	5.29927  	15.14296  	-1.18512  	0.01478  	0.29393  	0.27653  	-3.02442  	0.07285  	-0.08564  	-100.32786  	-1.16260  	81.61586  	86.75041  	-15613.43775  	-4203.55327  	0.00444  	0.00003  	0.00423  	0.00428  	0.00533  	0.00000  	0.00000  
77.93227  	23.05420  	5.06462  	5.30100  	15.14319  	-1.18512  	0.01655  	0.29433  	0.27889  	-3.02442  	0.07251  	-0.08566  	-100.32219  	-1.17194  	82.31110  	86.86799  	-15613.44241  	-4203.64857  	0.00445  	0.00003  	0.00423  	0.00432  	0.00533  	0.00000  	0.00000  
78.93559  	23.05197  	5.06448  	5.30115  	15.14275  	-1.18512  	0.01598  	0.29212  	0.27806  	-3.02442  	0.07175  	-0.08568  	-100.29944  	-1.17330  	82.06534  	86.21607  	-15612.91896  	-4203.64903  	0.00444  	0.00003  	0.00423  	0.00431  	0.00532  	0.00000  	0.00000  
79.93694  	23.06133  	5.06458  	5.30173  	15.14155  	-1.18512  	0.01623  	0.29294  	0.27294  	-3.02442  	0.07347  	-0.08569  	-100.43344  	-1.17573  	80.55465  	86.45747  	-15614.52004  	-4203.68937  	0.00444  	0.00003  	0.00424  	0.00431  	0.00532  	0.00000  	0.00000  
80.94026  	23.06229  	5.06425  	5.30143  	15.14203  	-1.18512  	0.01601  	0.29134  	0.27388  	-3.02442  	0.07124  	-0.08564  	-100.43950  	-1.17584  	80.83239  	85.98449  	-15614.80394  	-4203.65218  	0.00444  	0.00003  	0.00423  	0.00431  	0.00532  	0.00000  	0.00000  
81.94357  	23.05140  	5.06472  	5.30144  	15.14058  	-1.18512  	0.01573  	0.29203  	0.27537  	-3.02442  	0.07212  	-0.08571  	-100.31975  	-1.17361  	81.27382  	86.18835  	-15612.37977  	-4203.68111  	0.00444  	0.00003  	0.00423  	0.00430  	0.00532  	0.00000  	0.00000  
82.94389  	23.05474  	5.06539  	5.30175  	15.13976  	-1.18512  	0.01604  	0.29060  	0.27060  	-3.02442  	0.07247  	-0.08570  	-100.37250  	-1.17183  	79.86455  	85.76827  	-15612.87434  	-4203.73925  	0.00443  	0.00003  	0.00423  	0.00431  	0.00531  	0.00000  	0.00000  
83.94624  	23.05118  	5.06507  	5.30137  	15.13859  	-1.18512  	0.01566  	0.29032  	0.27163  	-3.02442  	0.07338  	-0.08573  	-100.34219  	-1.17154  	80.16745  	85.68609  	-15611.94698  	-4203.69767  	0.00443  	0.00003  	0.00423  	0.00430  	0.00531  	0.00000  	0.00000  
84.94953  	23.05275  	5.06487  	5.30100  	15.13815  	-1.18512  	0.01535  	0.28937  	0.27183  	-3.02442  	0.07154  	-0.08570  	-100.36773  	-1.17069  	80.22782  	85.40367  	-15612.16801  	-4203.66343  	0.00443  	0.00003  	0.00423  	0.00429  	0.00531  	0.00000  	0.00000  
85.95088  	23.05047  	5.06564  	5.30190  	15.13755  	-1.18512  	0.01575  	0.28812  	0.27401  	-3.02442  	0.07399  	-0.08569  	-100.34634  	-1.17132  	80.87235  	85.03488  	-15611.60209  	-4203.76351  	0.00444  	0.00003  	0.00424  	0.00430  	0.00530  	0.00000  	0.00000  
86.95416  	23.05608  	5.06541  	5.30200  	15.13499  	-1.18512  	0.01599  	0.28776  	0.27443  	-3.02442  	0.07266  	-0.08575  	-100.45000  	-1.17292  	80.99393  	84.92888  	-15612.20100  	-4203.75562  	0.00444  	0.00002  	0.00423  	0.00431  	0.00530  	0.00000  	0.00000  
87.95751  	23.05912  	5.06527  	5.30230  	15.13324  	-1.18512  	0.01577  	0.28868  	0.27020  	-3.02442  	0.07324  	-0.08569  	-100.51079  	-1.17515  	79.74663  	85.20015  	-15612.45505  	-4203.76526  	0.00443  	0.00003  	0.00423  	0.00430  	0.00531  	0.00000  	0.00000  
88.95883  	23.05257  	5.06571  	5.30184  	15.13123  	-1.18512  	0.01780  	0.29011  	0.27029  	-3.02442  	0.07183  	-0.08574  	-100.45311  	-1.17068  	79.77388  	85.62278  	-15610.77641  	-4203.76385  	0.00443  	0.00003  	0.00423  	0.00434  	0.00531  	0.00000  	0.00000  
89.96115  	23.05355  	5.06574  	5.30160  	15.12941  	-1.18512  	0.01656  	0.29175  	0.27453  	-3.02442  	0.07278  	-0.08568  	-100.48869  	-1.16932  	81.02334  	86.10661  	-15610.61065  	-4203.75188  	0.00444  	0.00003  	0.00423  	0.00432  	0.00532  	0.00000  	0.00000  
90.96446  	23.04964  	5.06553  	5.30112  	15.12749  	-1.18512  	0.01544  	0.29240  	0.27464  	-3.02442  	0.07124  	-0.08569  	-100.46342  	-1.16799  	81.05814  	86.29869  	-15609.46620  	-4203.71060  	0.00444  	0.00003  	0.00423  	0.00430  	0.00532  	0.00000  	0.00000  
91.96581  	23.05072  	5.06580  	5.30097  	15.12644  	-1.18512  	0.01557  	0.29305  	0.28003  	-3.02442  	0.07391  	-0.08572  	-100.49047  	-1.16593  	82.64745  	86.49190  	-15609.47239  	-4203.71720  	0.00445  	0.00003  	0.00424  	0.00430  	0.00533  	0.00000  	0.00000  
92.96910  	23.05272  	5.06536  	5.30156  	15.12563  	-1.18512  	0.01616  	0.29353  	0.27481  	-3.02442  	0.07368  	-0.08572  	-100.52609  	-1.17101  	81.10565  	86.63123  	-15609.70581  	-4203.72605  	0.00444  	0.00003  	0.00424  	0.00431  	0.00533  	0.00000  	0.00000  
93.97244  	23.05813  	5.06519  	5.30144  	15.12523  	-1.18512  	0.01659  	0.29433  	0.28067  	-3.02442  	0.07309  	-0.08571  	-100.59979  	-1.17122  	82.83594  	86.86744  	-15610.68974  	-4203.70880  	0.00445  	0.00003  	0.00423  	0.00432  	0.00533  	0.00000  	0.00000  
94.97277  	23.05934  	5.06559  	5.29976  	15.12542  	-1.18512  	0.01645  	0.29628  	0.27883  	-3.02442  	0.07150  	-0.08568  	-100.61269  	-1.16095  	82.29355  	87.44509  	-15610.96264  	-4203.63200  	0.00445  	0.00003  	0.00423  	0.00432  	0.00534  	0.00000  	0.00000  
95.97611  	23.05185  	5.06440  	5.30008  	15.12635  	-1.18512  	0.01606  	0.29581  	0.27807  	-3.02442  	0.07240  	-0.08569  	-100.50596  	-1.16842  	82.06845  	87.30587  	-15609.67551  	-4203.58017  	0.00444  	0.00003  	0.00423  	0.00431  	0.00534  	0.00000  	0.00000  
96.97943  	23.05529  	5.06549  	5.29937  	15.12707  	-1.18512  	0.01519  	0.29645  	0.28011  	-3.02442  	0.07205  	-0.08568  	-100.54038  	-1.15951  	82.67247  	87.49327  	-15610.49268  	-4203.60307  	0.00445  	0.00003  	0.00423  	0.00429  	0.00534  	0.00000  	0.00000  
97.98075  	23.05948  	5.06517  	5.29885  	15.12713  	-1.18512  	0.01731  	0.29796  	0.27789  	-3.02442  	0.07232  	-0.08570  	-100.59289  	-1.15851  	82.01523  	87.94007  	-15611.32688  	-4203.55303  	0.00444  	0.00003  	0.00423  	0.00433  	0.00535  	0.00000  	0.00000  
98.98406  	23.05992  	5.06552  	5.29968  	15.12867  	-1.18512  	0.01535  	0.29821  	0.27576  	-3.02442  	0.07486  	-0.08571  	-100.57880  	-1.16087  	81.38637  	88.01345  	-15611.71579  	-4203.62297  	0.00444  	0.00003  	0.00424  	0.00429  	0.00535  	0.00000  	0.00000  
99.98741  	23.06166  	5.06485  	5.29981  	15.13108  	-1.18512  	0.01581  	0.29680  	0.28140  	-3.02442  	0.07425  	-0.08566  	-100.57035  	-1.16488  	83.05240  	87.59635  	-15612.53066  	-4203.59121  	0.00445  	0.00003  	0.00424  	0.00430  	0.00534  	0.00000  	0.00000  
100.98872  	23.05839  	5.06457  	5.29997  	15.13205  	-1.18512  	0.01597  	0.29702  	0.28058  	-3.02442  	0.07216  	-0.08566  	-100.51666  	-1.16703  	82.81136  	87.66243  	-15612.07880  	-4203.58402  	0.00445  	0.00003  	0.00423  	0.00431  	0.00534  	0.00000  	0.00000  
101.99104  	23.05965  	5.06483  	5.29970  	15.13409  	-1.18512  	0.01694  	0.29807  	0.28200  	-3.02442  	0.07451  	-0.08568  	-100.50676  	-1.16438  	83.22976  	87.97091  	-15612.72677  	-4203.58316  	0.00445  	0.00003  	0.00424  	0.00433  	0.00535  	0.00000  	0.00000  
102.99437  	23.06811  	5.06481  	5.29926  	15.13632  	-1.18512  	0.01512  	0.29675  	0.27980  	-3.02442  	0.07229  	-0.08562  	-100.58570  	-1.16233  	82.57890  	87.58312  	-15614.82407  	-4203.55605  	0.00445  	0.00003  	0.00423  	0.00429  	0.00534  	0.00000  	0.00000  
