10/23/2024 09:57:53Time	T_hot_in(C)	T_cold_in(C)	T_cold_out(C)	T_hot_out(C)	mdot_cold(kg/s)	ASFASIFUAS(kg/s)	Diferencial_cold(bar)	Diferencial_hot(bar)	mdot_hot(kg/s)	ABS_cold(bar)	ABS_hot(bar)	q_cold(kW)	q_hot(kW)	ASFASYFY	Tau_cold_haste	Re_hot	Re_cold	U_global	PSIG_cold(bar)	R_fouling	PSIG_hot(bar)	PSID_hot(bar)	m_dot_hot	PSID_cold(bar)	m_dot_cold
1.74835  	0.00000  	0.00000  	0.00000  	0.00000  	-1.18512  	-0.20833  	-0.86278  	-2.50000  	-3.02442  	-1.25000  	-0.08628  	-0.00000  	-0.00000  	-737.84722  	-254.63905  	-9234.48090  	-3618.55272  	0.00000  	0.00000  	0.00000  	0.00000  	0.00000  	0.00000  	0.00000  
2.75067  	23.08994  	5.07038  	5.32823  	16.76850  	-1.18512  	0.02395  	0.55594  	0.54916  	-3.02442  	0.07080  	-0.08564  	-80.16374  	-1.27834  	162.07809  	164.08053  	-15941.31354  	-4205.62542  	0.00488  	0.00003  	0.00423  	0.00446  	0.00654  	0.00000  	0.00000  
3.75000  	23.06410  	5.06985  	5.32912  	16.76902  	-1.18512  	0.02437  	0.55774  	0.54763  	-3.02442  	0.07242  	-0.08564  	-79.82948  	-1.28537  	161.62691  	164.60967  	-15936.28824  	-4205.64650  	0.00488  	0.00003  	0.00423  	0.00447  	0.00654  	0.00000  	0.00000  
4.75231  	23.06245  	5.06986  	5.32765  	16.77083  	-1.18512  	0.02422  	0.55706  	0.54557  	-3.02442  	0.07300  	-0.08566  	-79.78558  	-1.27802  	161.01883  	164.40942  	-15936.31824  	-4205.55986  	0.00487  	0.00003  	0.00423  	0.00447  	0.00654  	0.00000  	0.00000  
5.75563  	23.07033  	5.06906  	5.32717  	16.77297  	-1.18512  	0.02447  	0.55759  	0.55281  	-3.02442  	0.07199  	-0.08571  	-79.85850  	-1.27961  	163.15625  	164.56682  	-15938.30729  	-4205.48319  	0.00488  	0.00003  	0.00423  	0.00447  	0.00654  	0.00000  	0.00000  
6.75695  	23.09043  	5.06829  	5.32711  	16.77458  	-1.18512  	0.02563  	0.55901  	0.54873  	-3.02442  	0.07328  	-0.08568  	-80.09291  	-1.28312  	161.95296  	164.98451  	-15942.61710  	-4205.43324  	0.00488  	0.00003  	0.00423  	0.00449  	0.00655  	0.00000  	0.00000  
7.76027  	23.07418  	5.06798  	5.32705  	16.77522  	-1.18512  	0.02416  	0.55867  	0.55089  	-3.02442  	0.07333  	-0.08567  	-79.87867  	-1.28441  	162.59002  	164.88428  	-15939.51891  	-4205.41107  	0.00488  	0.00003  	0.00423  	0.00446  	0.00655  	0.00000  	0.00000  
8.76359  	23.07646  	5.06831  	5.32538  	16.77791  	-1.18512  	0.02518  	0.55794  	0.55119  	-3.02442  	0.07307  	-0.08572  	-79.87352  	-1.27448  	162.67676  	164.67078  	-15940.50336  	-4205.33085  	0.00488  	0.00003  	0.00423  	0.00448  	0.00655  	0.00000  	0.00000  
9.76491  	23.08873  	5.06773  	5.32501  	16.78071  	-1.18512  	0.02493  	0.55563  	0.54980  	-3.02442  	0.07235  	-0.08568  	-79.99359  	-1.27546  	162.26662  	163.98848  	-15943.49410  	-4205.27368  	0.00488  	0.00003  	0.00423  	0.00448  	0.00654  	0.00000  	0.00000  
10.76822  	23.08778  	5.06725  	5.32533  	16.78256  	-1.18512  	0.02300  	0.55592  	0.54775  	-3.02442  	0.07315  	-0.08564  	-79.95804  	-1.27944  	161.66354  	164.07382  	-15943.67352  	-4205.26417  	0.00488  	0.00003  	0.00423  	0.00444  	0.00654  	0.00000  	0.00000  
11.77154  	23.08395  	5.06794  	5.32552  	16.78291  	-1.18512  	0.02471  	0.55446  	0.54319  	-3.02442  	0.07288  	-0.08579  	-79.90512  	-1.27701  	160.31692  	163.64276  	-15942.98451  	-4205.31695  	0.00487  	0.00002  	0.00423  	0.00447  	0.00653  	0.00000  	0.00000  
12.77286  	23.09258  	5.06820  	5.32624  	16.78488  	-1.18512  	0.02403  	0.55374  	0.54517  	-3.02442  	0.07243  	-0.08569  	-79.98964  	-1.27929  	160.89953  	163.43166  	-15945.08697  	-4205.37586  	0.00487  	0.00003  	0.00423  	0.00446  	0.00653  	0.00000  	0.00000  
13.77517  	23.09316  	5.06725  	5.32565  	16.78628  	-1.18512  	0.02426  	0.55327  	0.54590  	-3.02442  	0.07238  	-0.08568  	-79.97930  	-1.28107  	161.11494  	163.29139  	-15945.47930  	-4205.28339  	0.00487  	0.00003  	0.00423  	0.00447  	0.00652  	0.00000  	0.00000  
14.77750  	23.09835  	5.06738  	5.32576  	16.78649  	-1.18512  	0.02490  	0.55237  	0.54101  	-3.02442  	0.07252  	-0.08578  	-80.04237  	-1.28093  	159.67367  	163.02571  	-15946.55033  	-4205.29749  	0.00487  	0.00002  	0.00423  	0.00448  	0.00652  	0.00000  	0.00000  
15.77882  	23.08877  	5.06704  	5.32635  	16.78701  	-1.18512  	0.02418  	0.55081  	0.53930  	-3.02442  	0.07079  	-0.08566  	-79.91420  	-1.28555  	159.16784  	162.56410  	-15944.75281  	-4205.31272  	0.00486  	0.00003  	0.00423  	0.00446  	0.00651  	0.00000  	0.00000  
16.78211  	23.08654  	5.06685  	5.32558  	16.78602  	-1.18512  	0.02548  	0.55048  	0.54164  	-3.02442  	0.07417  	-0.08573  	-79.89853  	-1.28270  	159.85792  	162.46836  	-15944.11501  	-4205.25472  	0.00487  	0.00003  	0.00424  	0.00449  	0.00651  	0.00000  	0.00000  
17.78542  	23.08724  	5.06634  	5.32463  	16.78681  	-1.18512  	0.02397  	0.54724  	0.54055  	-3.02442  	0.07338  	-0.08572  	-79.89743  	-1.28051  	159.53770  	161.51039  	-15944.41077  	-4205.16777  	0.00486  	0.00003  	0.00423  	0.00446  	0.00650  	0.00000  	0.00000  
18.78677  	23.08659  	5.06677  	5.32554  	16.78719  	-1.18512  	0.02329  	0.54570  	0.53507  	-3.02442  	0.07353  	-0.08572  	-79.88438  	-1.28291  	157.91867  	161.05619  	-15944.35730  	-4205.24763  	0.00486  	0.00003  	0.00424  	0.00445  	0.00649  	0.00000  	0.00000  
19.79006  	23.08985  	5.06667  	5.32493  	16.78488  	-1.18512  	0.02330  	0.54346  	0.53647  	-3.02442  	0.07210  	-0.08565  	-79.95501  	-1.28038  	158.33290  	160.39703  	-15944.54610  	-4205.20546  	0.00486  	0.00003  	0.00423  	0.00445  	0.00648  	0.00000  	0.00000  
20.79341  	23.08567  	5.06710  	5.32603  	16.78294  	-1.18512  	0.02444  	0.54249  	0.53159  	-3.02442  	0.07336  	-0.08571  	-79.92664  	-1.28371  	156.89429  	160.10922  	-15943.33060  	-4205.29688  	0.00485  	0.00003  	0.00423  	0.00447  	0.00647  	0.00000  	0.00000  
21.79473  	23.08503  	5.06740  	5.32617  	16.78092  	-1.18512  	0.02372  	0.54022  	0.53471  	-3.02442  	0.07288  	-0.08576  	-79.94410  	-1.28288  	157.81357  	159.44045  	-15942.80206  	-4205.32315  	0.00486  	0.00002  	0.00423  	0.00446  	0.00646  	0.00000  	0.00000  
22.79804  	23.08167  	5.06717  	5.32674  	16.77845  	-1.18512  	0.02309  	0.54117  	0.53646  	-3.02442  	0.07222  	-0.08568  	-79.93280  	-1.28684  	158.33103  	159.72093  	-15941.64631  	-4205.34373  	0.00486  	0.00003  	0.00423  	0.00444  	0.00647  	0.00000  	0.00000  
23.80036  	23.08655  	5.06811  	5.32603  	16.77564  	-1.18512  	0.02331  	0.54367  	0.53083  	-3.02442  	0.07172  	-0.08573  	-80.03035  	-1.27870  	156.66824  	160.45869  	-15942.05587  	-4205.35767  	0.00485  	0.00003  	0.00423  	0.00445  	0.00648  	0.00000  	0.00000  
24.80168  	23.07735  	5.06789  	5.32682  	16.77344  	-1.18512  	0.02444  	0.54611  	0.53667  	-3.02442  	0.07337  	-0.08571  	-79.94151  	-1.28369  	158.39345  	161.17873  	-15939.79465  	-4205.39143  	0.00486  	0.00003  	0.00423  	0.00447  	0.00649  	0.00000  	0.00000  
25.80400  	23.07929  	5.06810  	5.32687  	16.76986  	-1.18512  	0.02371  	0.54750  	0.53614  	-3.02442  	0.07254  	-0.08570  	-80.01153  	-1.28290  	158.23579  	161.58910  	-15939.46858  	-4205.40689  	0.00486  	0.00003  	0.00423  	0.00446  	0.00650  	0.00000  	0.00000  
26.80732  	23.08400  	5.06752  	5.32644  	16.76820  	-1.18512  	0.02391  	0.54927  	0.53708  	-3.02442  	0.07182  	-0.08570  	-80.09231  	-1.28364  	158.51464  	162.11064  	-15940.07237  	-4205.34667  	0.00486  	0.00003  	0.00423  	0.00446  	0.00651  	0.00000  	0.00000  
27.81061  	23.08129  	5.06851  	5.32632  	16.76686  	-1.18512  	0.02368  	0.55026  	0.54022  	-3.02442  	0.07177  	-0.08571  	-80.07483  	-1.27811  	159.44102  	162.40246  	-15939.27007  	-4205.39877  	0.00486  	0.00003  	0.00423  	0.00445  	0.00651  	0.00000  	0.00000  
28.81193  	23.08739  	5.06707  	5.32540  	16.76539  	-1.18512  	0.02363  	0.55161  	0.54064  	-3.02442  	0.07223  	-0.08571  	-80.17102  	-1.28069  	159.56536  	162.80060  	-15940.18941  	-4205.25758  	0.00487  	0.00003  	0.00423  	0.00445  	0.00652  	0.00000  	0.00000  
29.81527  	23.08888  	5.06671  	5.32426  	16.76512  	-1.18512  	0.02499  	0.55206  	0.54301  	-3.02442  	0.07277  	-0.08575  	-80.19327  	-1.27685  	160.26377  	162.93337  	-15940.43223  	-4205.16722  	0.00487  	0.00002  	0.00423  	0.00448  	0.00652  	0.00000  	0.00000  
30.81859  	23.09216  	5.06723  	5.32459  	16.76531  	-1.18512  	0.02426  	0.55307  	0.54268  	-3.02442  	0.07116  	-0.08567  	-80.23245  	-1.27593  	160.16720  	163.23373  	-15941.12010  	-4205.21832  	0.00487  	0.00003  	0.00423  	0.00447  	0.00652  	0.00000  	0.00000  
31.81991  	23.09206  	5.06723  	5.32427  	16.76403  	-1.18512  	0.02395  	0.55336  	0.54195  	-3.02442  	0.07249  	-0.08574  	-80.24732  	-1.27431  	159.95005  	163.31787  	-15940.84577  	-4205.19957  	0.00487  	0.00003  	0.00423  	0.00446  	0.00652  	0.00000  	0.00000  
32.82322  	23.08491  	5.06702  	5.32406  	16.76467  	-1.18512  	0.02464  	0.55460  	0.54666  	-3.02442  	0.07120  	-0.08570  	-80.14868  	-1.27429  	161.34158  	163.68295  	-15939.55387  	-4205.17388  	0.00487  	0.00003  	0.00423  	0.00447  	0.00653  	0.00000  	0.00000  
33.82654  	23.08343  	5.06594  	5.32395  	16.76631  	-1.18512  	0.02528  	0.55621  	0.54687  	-3.02442  	0.07385  	-0.08568  	-80.10917  	-1.27914  	161.40162  	164.15972  	-15939.58565  	-4205.10293  	0.00487  	0.00003  	0.00424  	0.00449  	0.00654  	0.00000  	0.00000  
34.82786  	23.07954  	5.06613  	5.32328  	16.76779  	-1.18512  	0.02448  	0.55662  	0.54673  	-3.02442  	0.07246  	-0.08569  	-80.04102  	-1.27483  	161.36202  	164.28061  	-15939.10875  	-4205.07417  	0.00487  	0.00003  	0.00423  	0.00447  	0.00654  	0.00000  	0.00000  
35.83118  	23.08823  	5.06511  	5.32347  	16.76830  	-1.18512  	0.02384  	0.55631  	0.54926  	-3.02442  	0.07269  	-0.08571  	-80.14473  	-1.28085  	162.10715  	164.18914  	-15940.93159  	-4205.02401  	0.00488  	0.00003  	0.00423  	0.00446  	0.00654  	0.00000  	0.00000  
36.83449  	23.08144  	5.06508  	5.32313  	16.76883  	-1.18512  	0.02476  	0.55652  	0.54743  	-3.02442  	0.07218  	-0.08565  	-80.05193  	-1.27928  	161.56773  	164.25128  	-15939.69180  	-4205.00231  	0.00488  	0.00003  	0.00423  	0.00448  	0.00654  	0.00000  	0.00000  
37.83581  	23.08422  	5.06577  	5.32259  	16.77151  	-1.18512  	0.02469  	0.55729  	0.54911  	-3.02442  	0.07401  	-0.08570  	-80.05316  	-1.27324  	162.06343  	164.47861  	-15940.77440  	-4205.01114  	0.00488  	0.00003  	0.00424  	0.00447  	0.00654  	0.00000  	0.00000  
38.83913  	23.08493  	5.06682  	5.32330  	16.77306  	-1.18512  	0.02584  	0.55862  	0.54574  	-3.02442  	0.07271  	-0.08571  	-80.04245  	-1.27152  	161.07040  	164.87097  	-15941.22194  	-4205.11697  	0.00487  	0.00003  	0.00423  	0.00450  	0.00655  	0.00000  	0.00000  
39.84145  	23.08423  	5.06586  	5.32422  	16.77405  	-1.18512  	0.02577  	0.55906  	0.54675  	-3.02442  	0.07334  	-0.08573  	-80.02104  	-1.28086  	161.36655  	165.00082  	-15941.28044  	-4205.11411  	0.00487  	0.00003  	0.00423  	0.00449  	0.00655  	0.00000  	0.00000  
40.84178  	23.08066  	5.06596  	5.32496  	16.77497  	-1.18512  	0.02486  	0.55730  	0.55170  	-3.02442  	0.07220  	-0.08568  	-79.96414  	-1.28403  	162.82697  	164.48173  	-15940.75359  	-4205.16436  	0.00488  	0.00003  	0.00423  	0.00448  	0.00654  	0.00000  	0.00000  
41.84506  	23.08300  	5.06566  	5.32557  	16.77663  	-1.18512  	0.02637  	0.55592  	0.54653  	-3.02442  	0.07318  	-0.08571  	-79.97284  	-1.28852  	161.30308  	164.07376  	-15941.54759  	-4205.18317  	0.00487  	0.00003  	0.00423  	0.00451  	0.00654  	0.00000  	0.00000  
42.84841  	23.08366  	5.06449  	5.32445  	16.77863  	-1.18512  	0.02378  	0.55503  	0.54618  	-3.02442  	0.07179  	-0.08568  	-79.95574  	-1.28875  	161.20031  	163.81055  	-15942.07553  	-4205.04576  	0.00487  	0.00003  	0.00423  	0.00446  	0.00653  	0.00000  	0.00000  
43.84970  	23.09375  	5.06564  	5.32465  	16.77957  	-1.18512  	0.02537  	0.55545  	0.54625  	-3.02442  	0.07136  	-0.08567  	-80.07178  	-1.28410  	161.22072  	163.93388  	-15944.26423  	-4205.12650  	0.00487  	0.00003  	0.00423  	0.00449  	0.00653  	0.00000  	0.00000  
44.85204  	23.08737  	5.06530  	5.32348  	16.78110  	-1.18512  	0.02485  	0.55432  	0.54706  	-3.02442  	0.07286  	-0.08567  	-79.97145  	-1.27999  	161.45736  	163.60114  	-15943.30218  	-4205.03617  	0.00488  	0.00003  	0.00423  	0.00448  	0.00653  	0.00000  	0.00000  
45.85533  	23.08955  	5.06566  	5.32371  	16.78139  	-1.18512  	0.02252  	0.55240  	0.54540  	-3.02442  	0.07191  	-0.08570  	-79.99549  	-1.27929  	160.96883  	163.03479  	-15943.79341  	-4205.07166  	0.00487  	0.00003  	0.00423  	0.00443  	0.00652  	0.00000  	0.00000  
46.85668  	23.09240  	5.06544  	5.32329  	16.78258  	-1.18512  	0.02410  	0.55182  	0.54286  	-3.02442  	0.07324  	-0.08565  	-80.01653  	-1.27828  	160.21779  	162.86358  	-15944.59427  	-4205.03339  	0.00487  	0.00003  	0.00423  	0.00446  	0.00652  	0.00000  	0.00000  
47.85900  	23.08199  	5.06566  	5.32415  	16.78254  	-1.18512  	0.02403  	0.55089  	0.54330  	-3.02442  	0.07077  	-0.08563  	-79.88499  	-1.28149  	160.34789  	162.58863  	-15942.52024  	-4205.09787  	0.00487  	0.00003  	0.00423  	0.00446  	0.00651  	0.00000  	0.00000  
48.86232  	23.08533  	5.06574  	5.32445  	16.78269  	-1.18512  	0.02489  	0.54908  	0.54137  	-3.02442  	0.07354  	-0.08572  	-79.92559  	-1.28260  	159.78061  	162.05475  	-15943.21291  	-4205.12083  	0.00487  	0.00003  	0.00424  	0.00448  	0.00650  	0.00000  	0.00000  
49.86563  	23.08678  	5.06547  	5.32382  	16.78283  	-1.18512  	0.02426  	0.54858  	0.54204  	-3.02442  	0.07004  	-0.08572  	-79.94214  	-1.28082  	159.97724  	161.90603  	-15943.52801  	-4205.06680  	0.00487  	0.00003  	0.00422  	0.00447  	0.00650  	0.00000  	0.00000  
50.86693  	23.08395  	5.06486  	5.32290  	16.78191  	-1.18512  	0.02440  	0.54613  	0.53614  	-3.02442  	0.07110  	-0.08566  	-79.91794  	-1.27926  	158.23698  	161.18295  	-15942.78529  	-4204.97555  	0.00486  	0.00003  	0.00423  	0.00447  	0.00649  	0.00000  	0.00000  
51.87027  	23.08451  	5.06555  	5.32387  	16.78019  	-1.18512  	0.02548  	0.54477  	0.53265  	-3.02442  	0.07259  	-0.08569  	-79.94683  	-1.28065  	157.20570  	160.78298  	-15942.55291  	-4205.07480  	0.00485  	0.00003  	0.00423  	0.00449  	0.00649  	0.00000  	0.00000  
52.87359  	23.08845  	5.06469  	5.32336  	16.77963  	-1.18512  	0.02308  	0.54331  	0.53320  	-3.02442  	0.07364  	-0.08567  	-80.00393  	-1.28236  	157.36723  	160.35112  	-15943.22411  	-4204.99236  	0.00485  	0.00003  	0.00424  	0.00444  	0.00648  	0.00000  	0.00000  
53.87491  	23.08721  	5.06515  	5.32342  	16.77833  	-1.18512  	0.02349  	0.54158  	0.52980  	-3.02442  	0.07325  	-0.08566  	-80.00470  	-1.28042  	156.36550  	159.84266  	-15942.72042  	-4205.02353  	0.00485  	0.00003  	0.00423  	0.00445  	0.00647  	0.00000  	0.00000  
54.87823  	23.08867  	5.06462  	5.32416  	16.77692  	-1.18512  	0.02461  	0.54000  	0.52843  	-3.02442  	0.07182  	-0.08567  	-80.04101  	-1.28672  	155.96090  	159.37560  	-15942.73201  	-4205.03621  	0.00485  	0.00003  	0.00423  	0.00447  	0.00646  	0.00000  	0.00000  
55.88155  	23.08832  	5.06488  	5.32187  	16.77358  	-1.18512  	0.02418  	0.53949  	0.53414  	-3.02442  	0.07198  	-0.08561  	-80.07897  	-1.27403  	157.64495  	159.22470  	-15941.99820  	-4204.91476  	0.00485  	0.00003  	0.00423  	0.00446  	0.00646  	0.00000  	0.00000  
56.88286  	23.08179  	5.06366  	5.32282  	16.77146  	-1.18512  	0.02375  	0.54349  	0.53222  	-3.02442  	0.07225  	-0.08573  	-80.02304  	-1.28482  	157.07999  	160.40466  	-15940.28205  	-4204.89822  	0.00485  	0.00003  	0.00423  	0.00446  	0.00648  	0.00000  	0.00000  
57.88618  	23.08164  	5.06384  	5.32210  	16.76971  	-1.18512  	0.02438  	0.54606  	0.53796  	-3.02442  	0.07284  	-0.08572  	-80.04338  	-1.28036  	158.77225  	161.16241  	-15939.90353  	-4204.86605  	0.00486  	0.00003  	0.00423  	0.00447  	0.00649  	0.00000  	0.00000  
58.88947  	23.08058  	5.06445  	5.32282  	16.76732  	-1.18512  	0.02602  	0.54673  	0.53653  	-3.02442  	0.07179  	-0.08574  	-80.06024  	-1.28089  	158.34958  	161.36173  	-15939.21917  	-4204.94567  	0.00486  	0.00003  	0.00423  	0.00450  	0.00649  	0.00000  	0.00000  
59.89079  	23.08466  	5.06540  	5.32368  	16.76538  	-1.18512  	0.02416  	0.54967  	0.53852  	-3.02442  	0.07221  	-0.08571  	-80.13653  	-1.28046  	158.93938  	162.23043  	-15939.64403  	-4205.05414  	0.00486  	0.00003  	0.00423  	0.00446  	0.00651  	0.00000  	0.00000  
60.89411  	23.08846  	5.06534  	5.32459  	16.76440  	-1.18512  	0.02391  	0.54969  	0.54049  	-3.02442  	0.07054  	-0.08561  	-80.19716  	-1.28527  	159.52074  	162.23372  	-15940.20338  	-4205.10535  	0.00486  	0.00003  	0.00423  	0.00446  	0.00651  	0.00000  	0.00000  
61.89745  	23.08878  	5.06570  	5.32395  	16.76328  	-1.18512  	0.02547  	0.55178  	0.54151  	-3.02442  	0.07331  	-0.08570  	-80.21528  	-1.28031  	159.82191  	162.85093  	-15940.04577  	-4205.08886  	0.00487  	0.00003  	0.00423  	0.00449  	0.00652  	0.00000  	0.00000  
62.89874  	23.08237  	5.06466  	5.32187  	16.76317  	-1.18512  	0.02468  	0.55209  	0.54238  	-3.02442  	0.07235  	-0.08570  	-80.13556  	-1.27514  	160.07845  	162.94216  	-15938.75188  	-4204.90134  	0.00487  	0.00003  	0.00423  	0.00447  	0.00652  	0.00000  	0.00000  
63.90209  	23.08354  	5.06478  	5.32270  	16.76284  	-1.18512  	0.02522  	0.55335  	0.54917  	-3.02442  	0.07369  	-0.08569  	-80.15450  	-1.27865  	162.08262  	163.31433  	-15938.91838  	-4204.95849  	0.00488  	0.00003  	0.00424  	0.00448  	0.00652  	0.00000  	0.00000  
64.90341  	23.08388  	5.06512  	5.32296  	16.76294  	-1.18512  	0.02379  	0.55404  	0.54566  	-3.02442  	0.07102  	-0.08566  	-80.15764  	-1.27828  	161.04474  	163.51787  	-15939.00592  	-4204.99408  	0.00487  	0.00003  	0.00423  	0.00446  	0.00653  	0.00000  	0.00000  
65.90371  	23.08363  	5.06544  	5.32387  	16.76335  	-1.18512  	0.02473  	0.55538  	0.54607  	-3.02442  	0.07214  	-0.08576  	-80.14911  	-1.28119  	161.16721  	163.91453  	-15939.03732  	-4205.06834  	0.00487  	0.00002  	0.00423  	0.00447  	0.00653  	0.00000  	0.00000  
66.90704  	23.09066  	5.06526  	5.32474  	16.76543  	-1.18512  	0.02372  	0.55543  	0.54579  	-3.02442  	0.07097  	-0.08564  	-80.21189  	-1.28638  	161.08368  	163.92823  	-15940.84455  	-4205.10911  	0.00487  	0.00003  	0.00423  	0.00446  	0.00653  	0.00000  	0.00000  
67.91036  	23.09484  	5.06428  	5.32474  	16.76557  	-1.18512  	0.02399  	0.55534  	0.54816  	-3.02442  	0.07239  	-0.08564  	-80.26318  	-1.29124  	161.78353  	163.90304  	-15941.70378  	-4205.05083  	0.00488  	0.00003  	0.00423  	0.00446  	0.00653  	0.00000  	0.00000  
68.91169  	23.08586  	5.06514  	5.32345  	16.76702  	-1.18512  	0.02372  	0.55578  	0.54458  	-3.02442  	0.07106  	-0.08567  	-80.13096  	-1.28061  	160.72799  	164.03182  	-15940.20890  	-4205.02457  	0.00487  	0.00003  	0.00423  	0.00446  	0.00654  	0.00000  	0.00000  
69.91401  	23.07999  	5.06511  	5.32447  	16.76749  	-1.18512  	0.02419  	0.55652  	0.54840  	-3.02442  	0.07327  	-0.08565  	-80.05053  	-1.28580  	161.85314  	164.24929  	-15939.13738  	-4205.08406  	0.00488  	0.00003  	0.00423  	0.00446  	0.00654  	0.00000  	0.00000  
70.91630  	23.09859  	5.06498  	5.32472  	16.76939  	-1.18512  	0.02453  	0.55648  	0.54760  	-3.02442  	0.07215  	-0.08573  	-80.26229  	-1.28771  	161.61708  	164.23830  	-15943.20430  	-4205.09166  	0.00488  	0.00003  	0.00423  	0.00447  	0.00654  	0.00000  	0.00000  
71.91961  	23.08044  	5.06405  	5.32371  	16.77059  	-1.18512  	0.02440  	0.55880  	0.54672  	-3.02442  	0.07179  	-0.08564  	-80.01693  	-1.28731  	161.35887  	164.92347  	-15939.84087  	-4204.97482  	0.00487  	0.00003  	0.00423  	0.00447  	0.00655  	0.00000  	0.00000  
72.92096  	23.08585  	5.06394  	5.32170  	16.77227  	-1.18512  	0.02522  	0.55819  	0.54654  	-3.02442  	0.07340  	-0.08576  	-80.06421  	-1.27787  	161.30453  	164.74347  	-15941.24896  	-4204.84824  	0.00487  	0.00002  	0.00423  	0.00448  	0.00655  	0.00000  	0.00000  
73.92328  	23.08606  	5.06373  	5.32120  	16.77457  	-1.18512  	0.02547  	0.55895  	0.55092  	-3.02442  	0.07366  	-0.08578  	-80.03771  	-1.27643  	162.59688  	164.96657  	-15941.74600  	-4204.80537  	0.00488  	0.00002  	0.00424  	0.00449  	0.00655  	0.00000  	0.00000  
74.92660  	23.08745  	5.06387  	5.32096  	16.77591  	-1.18512  	0.02398  	0.55792  	0.54811  	-3.02442  	0.07332  	-0.08569  	-80.03846  	-1.27453  	161.76839  	164.66361  	-15942.28908  	-4204.79935  	0.00488  	0.00003  	0.00423  	0.00446  	0.00655  	0.00000  	0.00000  
75.92792  	23.08255  	5.06365  	5.32155  	16.77677  	-1.18512  	0.02514  	0.55659  	0.54922  	-3.02442  	0.07215  	-0.08571  	-79.96528  	-1.27859  	162.09670  	164.27030  	-15941.48642  	-4204.82194  	0.00488  	0.00003  	0.00423  	0.00448  	0.00654  	0.00000  	0.00000  
76.93123  	23.07804  	5.06405  	5.32154  	16.77785  	-1.18512  	0.02526  	0.55538  	0.54838  	-3.02442  	0.07304  	-0.08571  	-79.89453  	-1.27655  	161.84699  	163.91277  	-15940.80579  	-4204.84503  	0.00488  	0.00003  	0.00423  	0.00449  	0.00653  	0.00000  	0.00000  
77.93455  	23.07217  	5.06377  	5.32197  	16.77911  	-1.18512  	0.02421  	0.55561  	0.54686  	-3.02442  	0.07158  	-0.08558  	-79.80399  	-1.28006  	161.39955  	163.98307  	-15939.89116  	-4204.85377  	0.00487  	0.00003  	0.00423  	0.00446  	0.00654  	0.00000  	0.00000  
78.93587  	23.06918  	5.06473  	5.32231  	16.78073  	-1.18512  	0.02411  	0.55450  	0.54330  	-3.02442  	0.07198  	-0.08571  	-79.74550  	-1.27701  	160.34879  	163.65533  	-15939.61865  	-4204.93177  	0.00487  	0.00003  	0.00423  	0.00446  	0.00653  	0.00000  	0.00000  
79.93919  	23.06462  	5.06553  	5.32418  	16.78192  	-1.18512  	0.02352  	0.55322  	0.54619  	-3.02442  	0.07324  	-0.08568  	-79.67260  	-1.28230  	161.20151  	163.27647  	-15938.94888  	-4205.09213  	0.00487  	0.00003  	0.00423  	0.00445  	0.00652  	0.00000  	0.00000  
80.94250  	23.06446  	5.06525  	5.32421  	16.78217  	-1.18512  	0.02316  	0.55138  	0.54036  	-3.02442  	0.07450  	-0.08574  	-79.66736  	-1.28378  	159.48045  	162.73377  	-15938.96761  	-4205.07699  	0.00486  	0.00002  	0.00424  	0.00444  	0.00652  	0.00000  	0.00000  
81.94283  	23.07028  	5.06484  	5.32425  	16.78276  	-1.18512  	0.02505  	0.55153  	0.54141  	-3.02442  	0.07339  	-0.08574  	-79.73373  	-1.28608  	159.79187  	162.77875  	-15940.23963  	-4205.05499  	0.00487  	0.00003  	0.00423  	0.00448  	0.00652  	0.00000  	0.00000  
82.94515  	23.07128  	5.06553  	5.32461  	16.78221  	-1.18512  	0.02408  	0.54890  	0.53957  	-3.02442  	0.07190  	-0.08575  	-79.75336  	-1.28442  	159.24933  	162.00209  	-15940.32896  	-4205.11794  	0.00486  	0.00002  	0.00423  	0.00446  	0.00650  	0.00000  	0.00000  
83.94846  	23.06277  	5.06641  	5.32622  	16.78192  	-1.18512  	0.02499  	0.54947  	0.53678  	-3.02442  	0.07216  	-0.08573  	-79.64902  	-1.28807  	158.42564  	162.17036  	-15938.58390  	-4205.26699  	0.00486  	0.00003  	0.00423  	0.00448  	0.00651  	0.00000  	0.00000  
84.94978  	23.06909  	5.06634  	5.32705  	16.78232  	-1.18512  	0.02361  	0.54633  	0.54269  	-3.02442  	0.07260  	-0.08565  	-79.72410  	-1.29250  	160.16974  	161.24182  	-15939.91741  	-4205.31212  	0.00487  	0.00003  	0.00423  	0.00445  	0.00649  	0.00000  	0.00000  
85.95307  	23.07026  	5.06656  	5.32726  	16.78169  	-1.18512  	0.02406  	0.54522  	0.53351  	-3.02442  	0.07394  	-0.08570  	-79.74702  	-1.29245  	157.45895  	160.91594  	-15940.02413  	-4205.33807  	0.00485  	0.00003  	0.00424  	0.00446  	0.00649  	0.00000  	0.00000  
86.95639  	23.07582  	5.06601  	5.32669  	16.77971  	-1.18512  	0.02378  	0.54231  	0.53675  	-3.02442  	0.07179  	-0.08565  	-79.84259  	-1.29232  	158.41621  	160.05565  	-15940.73374  	-4205.27111  	0.00486  	0.00003  	0.00423  	0.00446  	0.00647  	0.00000  	0.00000  
87.95774  	23.06768  	5.06729  	5.32705  	16.77927  	-1.18512  	0.02503  	0.54178  	0.53388  	-3.02442  	0.07173  	-0.08566  	-79.74490  	-1.28779  	157.56978  	159.89971  	-15939.03201  	-4205.36988  	0.00485  	0.00003  	0.00423  	0.00448  	0.00647  	0.00000  	0.00000  
88.96102  	23.07301  	5.06792  	5.32913  	16.77669  	-1.18512  	0.02382  	0.53960  	0.52990  	-3.02442  	0.07159  	-0.08569  	-79.84516  	-1.29500  	156.39467  	159.25781  	-15939.57787  	-4205.53167  	0.00485  	0.00003  	0.00423  	0.00446  	0.00646  	0.00000  	0.00000  
89.96337  	23.07754  	5.06803  	5.32925  	16.77525  	-1.18512  	0.02293  	0.54058  	0.53272  	-3.02442  	0.07463  	-0.08565  	-79.92097  	-1.29500  	157.22599  	159.54570  	-15940.18990  	-4205.54587  	0.00485  	0.00003  	0.00424  	0.00444  	0.00647  	0.00000  	0.00000  
90.96469  	23.08029  	5.06710  	5.32811  	16.77287  	-1.18512  	0.02303  	0.54374  	0.53478  	-3.02442  	0.07127  	-0.08561  	-79.98604  	-1.29399  	157.83312  	160.47962  	-15940.26378  	-4205.42137  	0.00486  	0.00003  	0.00423  	0.00444  	0.00648  	0.00000  	0.00000  
91.96601  	23.08211  	5.06686  	5.32632  	16.77127  	-1.18512  	0.02244  	0.54431  	0.53673  	-3.02442  	0.07320  	-0.08571  	-80.02944  	-1.28633  	158.41014  	160.64765  	-15940.30886  	-4205.29989  	0.00486  	0.00003  	0.00423  	0.00443  	0.00648  	0.00000  	0.00000  
92.96933  	23.07768  	5.06748  	5.32591  	16.76939  	-1.18512  	0.02467  	0.54606  	0.53462  	-3.02442  	0.07245  	-0.08570  	-79.99702  	-1.28121  	157.78585  	161.16303  	-15939.05642  	-4205.31302  	0.00486  	0.00003  	0.00423  	0.00447  	0.00649  	0.00000  	0.00000  
93.97262  	23.06894  	5.06712  	5.32582  	16.76799  	-1.18512  	0.02580  	0.54715  	0.54280  	-3.02442  	0.07209  	-0.08570  	-79.90403  	-1.28257  	160.20276  	161.48476  	-15937.04363  	-4205.28549  	0.00487  	0.00003  	0.00423  	0.00450  	0.00650  	0.00000  	0.00000  
94.97397  	23.03424  	5.06737  	5.32609  	16.76712  	-1.18512  	0.02411  	0.55082  	0.54377  	-3.02442  	0.07226  	-0.08570  	-79.47501  	-1.28264  	160.48676  	162.56910  	-15929.98655  	-4205.31684  	0.00487  	0.00003  	0.00423  	0.00446  	0.00651  	0.00000  	0.00000  
95.97728  	23.05384  	5.06691  	5.32548  	16.76747  	-1.18512  	0.02412  	0.55073  	0.54267  	-3.02442  	0.07408  	-0.08570  	-79.71908  	-1.28190  	160.16174  	162.54048  	-15933.94577  	-4205.25267  	0.00487  	0.00003  	0.00424  	0.00446  	0.00651  	0.00000  	0.00000  
96.98060  	23.05259  	5.06724  	5.32600  	16.76721  	-1.18512  	0.02510  	0.55232  	0.54260  	-3.02442  	0.07384  	-0.08567  	-79.70659  	-1.28285  	160.14143  	163.01177  	-15933.64513  	-4205.30401  	0.00487  	0.00003  	0.00424  	0.00448  	0.00652  	0.00000  	0.00000  
97.98189  	23.05254  	5.06779  	5.32560  	16.76724  	-1.18512  	0.02429  	0.55319  	0.54419  	-3.02442  	0.07178  	-0.08564  	-79.70549  	-1.27811  	160.61130  	163.26737  	-15933.64097  	-4205.31277  	0.00487  	0.00003  	0.00423  	0.00447  	0.00652  	0.00000  	0.00000  
98.98521  	23.07320  	5.06728  	5.32514  	16.76910  	-1.18512  	0.02444  	0.55380  	0.54666  	-3.02442  	0.07192  	-0.08569  	-79.94394  	-1.27837  	161.34200  	163.44850  	-15938.10798  	-4205.25464  	0.00487  	0.00003  	0.00423  	0.00447  	0.00653  	0.00000  	0.00000  
99.98855  	23.07778  	5.06734  	5.32591  	16.77062  	-1.18512  	0.02344  	0.55442  	0.55146  	-3.02442  	0.07219  	-0.08573  	-79.98277  	-1.28189  	162.75660  	163.62974  	-15939.32013  	-4205.30418  	0.00488  	0.00003  	0.00423  	0.00445  	0.00653  	0.00000  	0.00000  
100.98987  	23.07513  	5.06725  	5.32556  	16.77134  	-1.18512  	0.02393  	0.55550  	0.54495  	-3.02442  	0.07233  	-0.08564  	-79.94002  	-1.28061  	160.83664  	163.94932  	-15938.93630  	-4205.27750  	0.00487  	0.00003  	0.00423  	0.00446  	0.00653  	0.00000  	0.00000  
101.99220  	23.07980  	5.06748  	5.32606  	16.77324  	-1.18512  	0.02597  	0.55572  	0.54327  	-3.02442  	0.07219  	-0.08569  	-79.97506  	-1.28197  	160.33969  	164.01489  	-15940.23996  	-4205.32151  	0.00487  	0.00003  	0.00423  	0.00450  	0.00654  	0.00000  	0.00000  
102.99551  	23.08421  	5.06814  	5.32632  	16.77535  	-1.18512  	0.02437  	0.55622  	0.54902  	-3.02442  	0.07238  	-0.08573  	-80.00420  	-1.27993  	162.03617  	164.16183  	-15941.53459  	-4205.37674  	0.00488  	0.00003  	0.00423  	0.00447  	0.00654  	0.00000  	0.00000  
103.99683  	23.08552  	5.06738  	5.32827  	16.77902  	-1.18512  	0.02521  	0.55727  	0.54410  	-3.02442  	0.07281  	-0.08566  	-79.97429  	-1.29337  	160.58594  	164.47158  	-15942.52248  	-4205.44786  	0.00487  	0.00003  	0.00423  	0.00448  	0.00654  	0.00000  	0.00000  
105.00015  	23.08461  	5.06808  	5.32877  	16.78001  	-1.18512  	0.02435  	0.55777  	0.55190  	-3.02442  	0.07209  	-0.08567  	-79.95022  	-1.29239  	162.88669  	164.61862  	-15942.54006  	-4205.51973  	0.00488  	0.00003  	0.00423  	0.00447  	0.00654  	0.00000  	0.00000  
106.00346  	23.09020  	5.06882  	5.32960  	16.78284  	-1.18512  	0.02495  	0.55807  	0.54926  	-3.02442  	0.07310  	-0.08572  	-79.98514  	-1.29284  	162.10874  	164.70791  	-15944.20832  	-4205.61452  	0.00488  	0.00003  	0.00423  	0.00448  	0.00655  	0.00000  	0.00000  
107.00479  	23.09452  	5.06908  	5.33154  	16.78524  	-1.18512  	0.02507  	0.55853  	0.54823  	-3.02442  	0.07398  	-0.08575  	-80.00943  	-1.30114  	161.80309  	164.84289  	-15945.54280  	-4205.74583  	0.00488  	0.00002  	0.00424  	0.00448  	0.00655  	0.00000  	0.00000  
108.00810  	23.09864  	5.06995  	5.33270  	16.78961  	-1.18512  	0.02340  	0.55842  	0.55062  	-3.02442  	0.07218  	-0.08565  	-80.00629  	-1.30260  	162.50851  	164.81220  	-15947.22984  	-4205.86717  	0.00488  	0.00003  	0.00423  	0.00445  	0.00655  	0.00000  	0.00000  
109.01142  	23.10427  	5.07107  	5.33390  	16.79198  	-1.18512  	0.02474  	0.55705  	0.54804  	-3.02442  	0.07212  	-0.08570  	-80.04761  	-1.30303  	161.74645  	164.40724  	-15948.81459  	-4206.00672  	0.00488  	0.00003  	0.00423  	0.00448  	0.00654  	0.00000  	0.00000  
110.01271  	23.10519  	5.07169  	5.33445  	16.79419  	-1.18512  	0.02532  	0.55588  	0.54838  	-3.02442  	0.07339  	-0.08572  	-80.03119  	-1.30265  	161.84708  	164.06241  	-15949.43648  	-4206.07716  	0.00488  	0.00003  	0.00423  	0.00449  	0.00654  	0.00000  	0.00000  
111.01605  	23.10356  	5.07207  	5.33563  	16.79696  	-1.18512  	0.02521  	0.55618  	0.54278  	-3.02442  	0.07258  	-0.08573  	-79.97536  	-1.30661  	160.19527  	164.15111  	-15949.66372  	-4206.17042  	0.00487  	0.00003  	0.00423  	0.00448  	0.00654  	0.00000  	0.00000  
112.01837  	23.10432  	5.07145  	5.33475  	16.79946  	-1.18512  	0.02455  	0.55399  	0.54190  	-3.02442  	0.07397  	-0.08567  	-79.95341  	-1.30536  	159.93528  	163.50362  	-15950.31157  	-4206.08012  	0.00487  	0.00003  	0.00424  	0.00447  	0.00653  	0.00000  	0.00000  
113.02166  	23.10404  	5.07224  	5.33497  	16.80094  	-1.18512  	0.02406  	0.55317  	0.54547  	-3.02442  	0.07189  	-0.08567  	-79.93105  	-1.30252  	160.98954  	163.26086  	-15950.54893  	-4206.14100  	0.00487  	0.00003  	0.00423  	0.00446  	0.00652  	0.00000  	0.00000  
114.02201  	23.10204  	5.07211  	5.33503  	16.80250  	-1.18512  	0.02454  	0.55201  	0.54190  	-3.02442  	0.07354  	-0.08571  	-79.88581  	-1.30348  	159.93614  	162.91821  	-15950.46089  	-4206.13706  	0.00487  	0.00003  	0.00424  	0.00447  	0.00652  	0.00000  	0.00000  
115.02530  	23.10247  	5.07313  	5.33513  	16.80478  	-1.18512  	0.02395  	0.55100  	0.54495  	-3.02442  	0.07260  	-0.08573  	-79.86245  	-1.29893  	160.83477  	162.62128  	-15950.99959  	-4206.20394  	0.00487  	0.00003  	0.00423  	0.00446  	0.00651  	0.00000  	0.00000  
116.02862  	23.10798  	5.07251  	5.33460  	16.80585  	-1.18512  	0.02616  	0.55038  	0.54334  	-3.02442  	0.07175  	-0.08570  	-79.91869  	-1.29931  	160.36052  	162.43790  	-15952.30577  	-4206.13499  	0.00487  	0.00003  	0.00423  	0.00450  	0.00651  	0.00000  	0.00000  
117.02997  	23.10567  	5.07256  	5.33488  	16.80597  	-1.18512  	0.02399  	0.54667  	0.53868  	-3.02442  	0.07413  	-0.08569  	-79.88791  	-1.30047  	158.98689  	161.34354  	-15951.86961  	-4206.15514  	0.00486  	0.00003  	0.00424  	0.00446  	0.00649  	0.00000  	0.00000  
118.03328  	23.10343  	5.07347  	5.33473  	16.80713  	-1.18512  	0.02435  	0.54656  	0.53440  	-3.02442  	0.07366  	-0.08572  	-79.84483  	-1.29522  	157.72107  	161.31081  	-15951.65666  	-4206.19992  	0.00486  	0.00003  	0.00424  	0.00447  	0.00649  	0.00000  	0.00000  
119.03657  	23.10257  	5.07432  	5.33499  	16.80719  	-1.18512  	0.02444  	0.54487  	0.53266  	-3.02442  	0.07154  	-0.08572  	-79.83311  	-1.29233  	157.20939  	160.81090  	-15951.49680  	-4206.26684  	0.00485  	0.00003  	0.00423  	0.00447  	0.00649  	0.00000  	0.00000  
120.03792  	23.10378  	5.07401  	5.33649  	16.80712  	-1.18512  	0.02258  	0.54194  	0.53809  	-3.02442  	0.07223  	-0.08570  	-79.84927  	-1.30129  	158.81198  	159.94811  	-15951.72341  	-4206.33850  	0.00486  	0.00003  	0.00423  	0.00443  	0.00647  	0.00000  	0.00000  
121.04124  	23.10660  	5.07414  	5.33701  	16.80610  	-1.18512  	0.02457  	0.54107  	0.53075  	-3.02442  	0.07190  	-0.08573  	-79.89794  	-1.30322  	156.64643  	159.69103  	-15952.08008  	-4206.37672  	0.00485  	0.00003  	0.00423  	0.00447  	0.00647  	0.00000  	0.00000  
122.04355  	23.10757  	5.07497  	5.33705  	16.80506  	-1.18512  	0.02385  	0.53923  	0.53215  	-3.02442  	0.07118  	-0.08567  	-79.92340  	-1.29933  	157.05847  	159.14901  	-15952.06697  	-4206.42926  	0.00485  	0.00003  	0.00423  	0.00446  	0.00646  	0.00000  	0.00000  
123.04388  	23.10781  	5.07619  	5.33816  	16.80435  	-1.18512  	0.02380  	0.54210  	0.52932  	-3.02442  	0.07284  	-0.08569  	-79.93541  	-1.29873  	156.22264  	159.99518  	-15951.97383  	-4206.56925  	0.00485  	0.00003  	0.00423  	0.00446  	0.00647  	0.00000  	0.00000  
124.04719  	23.11125  	5.07720  	5.33901  	16.80231  	-1.18512  	0.02424  	0.54372  	0.53030  	-3.02442  	0.07267  	-0.08575  	-80.00484  	-1.29798  	156.51282  	160.47289  	-15952.25273  	-4206.68051  	0.00485  	0.00002  	0.00423  	0.00447  	0.00648  	0.00000  	0.00000  
125.05051  	23.11387  	5.07736  	5.34093  	16.80106  	-1.18512  	0.02498  	0.54657  	0.53613  	-3.02442  	0.07118  	-0.08568  	-80.05387  	-1.30672  	158.23236  	161.31506  	-15952.52382  	-4206.80520  	0.00486  	0.00003  	0.00423  	0.00448  	0.00649  	0.00000  	0.00000  
126.05183  	23.11509  	5.07849  	5.34202  	16.80074  	-1.18512  	0.02436  	0.54697  	0.53452  	-3.02442  	0.07217  	-0.08570  	-80.07342  	-1.30651  	157.75837  	161.43277  	-15952.70175  	-4206.93835  	0.00486  	0.00003  	0.00423  	0.00447  	0.00650  	0.00000  	0.00000  
127.05515  	23.11377  	5.07952  	5.34237  	16.80027  	-1.18512  	0.02356  	0.54741  	0.54278  	-3.02442  	0.07260  	-0.08567  	-80.06259  	-1.30311  	160.19525  	161.56117  	-15952.34824  	-4207.02087  	0.00487  	0.00003  	0.00423  	0.00445  	0.00650  	0.00000  	0.00000  
128.05846  	23.12395  	5.08008  	5.34487  	16.79947  	-1.18512  	0.02377  	0.55049  	0.53887  	-3.02442  	0.07257  	-0.08567  	-80.20170  	-1.31270  	159.04115  	162.47245  	-15954.20985  	-4207.20438  	0.00486  	0.00003  	0.00423  	0.00446  	0.00651  	0.00000  	0.00000  
129.05979  	23.12478  	5.08004  	5.34519  	16.80010  	-1.18512  	0.02500  	0.55096  	0.54701  	-3.02442  	0.07251  	-0.08567  	-80.20436  	-1.31447  	161.44336  	162.61044  	-15954.50127  	-4207.22126  	0.00488  	0.00003  	0.00423  	0.00448  	0.00651  	0.00000  	0.00000  
130.06310  	23.11748  	5.08078  	5.34623  	16.80060  	-1.18512  	0.02260  	0.55178  	0.54423  	-3.02442  	0.07282  	-0.08567  	-80.10544  	-1.31603  	160.62221  	162.85069  	-15953.15092  	-4207.32819  	0.00487  	0.00003  	0.00423  	0.00443  	0.00652  	0.00000  	0.00000  
131.06642  	23.12028  	5.08104  	5.34619  	16.80277  	-1.18512  	0.02359  	0.55437  	0.54325  	-3.02442  	0.07286  	-0.08575  	-80.11339  	-1.31453  	160.33449  	163.61747  	-15954.13799  	-4207.34130  	0.00487  	0.00002  	0.00423  	0.00445  	0.00653  	0.00000  	0.00000  
132.06674  	23.12955  	5.08195  	5.34639  	16.80403  	-1.18512  	0.02483  	0.55509  	0.54398  	-3.02442  	0.07245  	-0.08573  	-80.21486  	-1.31101  	160.54987  	163.83006  	-15956.22656  	-4207.40746  	0.00487  	0.00003  	0.00423  	0.00448  	0.00653  	0.00000  	0.00000  
133.06906  	23.12974  	5.08155  	5.34602  	16.80676  	-1.18512  	0.02488  	0.55584  	0.54722  	-3.02442  	0.07194  	-0.08571  	-80.18272  	-1.31110  	161.50713  	164.05054  	-15956.80772  	-4207.36150  	0.00488  	0.00003  	0.00423  	0.00448  	0.00654  	0.00000  	0.00000  
134.07238  	23.12347  	5.08288  	5.34631  	16.80865  	-1.18512  	0.02469  	0.55581  	0.54761  	-3.02442  	0.07353  	-0.08567  	-80.07923  	-1.30600  	161.62214  	164.04154  	-15955.93726  	-4207.45848  	0.00488  	0.00003  	0.00424  	0.00447  	0.00654  	0.00000  	0.00000  
135.07370  	23.13358  	5.08278  	5.34715  	16.81196  	-1.18512  	0.02484  	0.55686  	0.55025  	-3.02442  	0.07204  	-0.08569  	-80.16538  	-1.31067  	162.40126  	164.35110  	-15958.60213  	-4207.50299  	0.00488  	0.00003  	0.00423  	0.00448  	0.00654  	0.00000  	0.00000  
136.07602  	23.14017  	5.08357  	5.34731  	16.81451  	-1.18512  	0.02471  	0.55773  	0.54976  	-3.02442  	0.07164  	-0.08568  	-80.21669  	-1.30751  	162.25563  	164.60636  	-15960.41577  	-4207.56038  	0.00488  	0.00003  	0.00423  	0.00447  	0.00654  	0.00000  	0.00000  
137.07930  	23.12868  	5.08331  	5.34683  	16.81711  	-1.18512  	0.02427  	0.55769  	0.54777  	-3.02442  	0.07444  	-0.08577  	-80.03792  	-1.30646  	161.66772  	164.59735  	-15958.65153  	-4207.51566  	0.00488  	0.00002  	0.00424  	0.00447  	0.00654  	0.00000  	0.00000  
138.08265  	23.13634  	5.08415  	5.34702  	16.81938  	-1.18512  	0.02453  	0.55744  	0.54948  	-3.02442  	0.07279  	-0.08570  	-80.10638  	-1.30324  	162.17371  	164.52116  	-15960.62181  	-4207.57715  	0.00488  	0.00003  	0.00423  	0.00447  	0.00654  	0.00000  	0.00000  
139.08397  	23.13547  	5.08410  	5.34654  	16.82354  	-1.18512  	0.02592  	0.55758  	0.54800  	-3.02442  	0.07292  	-0.08564  	-80.04260  	-1.30103  	161.73530  	164.56286  	-15961.27549  	-4207.54564  	0.00488  	0.00003  	0.00423  	0.00450  	0.00654  	0.00000  	0.00000  
140.08629  	23.13698  	5.08330  	5.34641  	16.82576  	-1.18512  	0.02580  	0.55822  	0.55128  	-3.02442  	0.07291  	-0.08572  	-80.03362  	-1.30441  	162.70484  	164.75343  	-15962.01750  	-4207.48965  	0.00488  	0.00003  	0.00423  	0.00450  	0.00655  	0.00000  	0.00000  
141.08958  	23.14260  	5.08422  	5.34595  	16.82899  	-1.18512  	0.02538  	0.55853  	0.54949  	-3.02442  	0.07449  	-0.08575  	-80.06393  	-1.29758  	162.17449  	164.84345  	-15963.77510  	-4207.51740  	0.00488  	0.00002  	0.00424  	0.00449  	0.00655  	0.00000  	0.00000  
142.08992  	23.14113  	5.08415  	5.34540  	16.83127  	-1.18512  	0.02449  	0.55682  	0.55315  	-3.02442  	0.07064  	-0.08571  	-80.01632  	-1.29517  	163.25754  	164.34050  	-15963.93502  	-4207.48072  	0.00489  	0.00003  	0.00423  	0.00447  	0.00654  	0.00000  	0.00000  
143.09325  	23.14171  	5.08343  	5.34613  	16.83558  	-1.18512  	0.02479  	0.55493  	0.54862  	-3.02442  	0.07372  	-0.08565  	-79.96905  	-1.30238  	161.91867  	163.78248  	-15964.90811  	-4207.48068  	0.00488  	0.00003  	0.00424  	0.00448  	0.00653  	0.00000  	0.00000  
144.09554  	23.14141  	5.08434  	5.34534  	16.83726  	-1.18512  	0.02417  	0.55523  	0.54266  	-3.02442  	0.07130  	-0.08566  	-79.94400  	-1.29396  	160.15912  	163.86883  	-15965.18048  	-4207.48841  	0.00487  	0.00003  	0.00423  	0.00446  	0.00653  	0.00000  	0.00000  
145.09686  	23.14551  	5.08452  	5.34645  	16.83963  	-1.18512  	0.02400  	0.55315  	0.54840  	-3.02442  	0.07203  	-0.08571  	-79.96579  	-1.29852  	161.85482  	163.25477  	-15966.46657  	-4207.56557  	0.00488  	0.00003  	0.00423  	0.00446  	0.00652  	0.00000  	0.00000  
146.10017  	23.15095  	5.08446  	5.34687  	16.84227  	-1.18512  	0.02389  	0.55143  	0.54396  	-3.02442  	0.07190  	-0.08560  	-80.00135  	-1.30095  	160.54452  	162.74850  	-15968.07088  	-4207.58712  	0.00487  	0.00003  	0.00423  	0.00446  	0.00652  	0.00000  	0.00000  
147.10252  	23.15067  	5.08425  	5.34759  	16.84182  	-1.18512  	0.02370  	0.55088  	0.54201  	-3.02442  	0.07241  	-0.08560  	-80.00352  	-1.30555  	159.96919  	162.58507  	-15967.92445  	-4207.61719  	0.00487  	0.00003  	0.00423  	0.00445  	0.00651  	0.00000  	0.00000  
148.10185  	23.14842  	5.08400  	5.34829  	16.84493  	-1.18512  	0.02413  	0.55030  	0.53815  	-3.02442  	0.07185  	-0.08570  	-79.93556  	-1.31028  	158.82870  	162.41347  	-15968.09587  	-4207.64478  	0.00486  	0.00003  	0.00423  	0.00446  	0.00651  	0.00000  	0.00000  
149.10516  	23.14834  	5.08457  	5.34850  	16.84610  	-1.18512  	0.02428  	0.54924  	0.54454  	-3.02442  	0.07345  	-0.08570  	-79.91959  	-1.30846  	160.71368  	162.10158  	-15968.31282  	-4207.69168  	0.00487  	0.00003  	0.00424  	0.00447  	0.00651  	0.00000  	0.00000  
150.10848  	23.14681  	5.08713  	5.34899  	16.84650  	-1.18512  	0.02564  	0.54829  	0.54052  	-3.02442  	0.07243  	-0.08572  	-79.89510  	-1.29818  	159.52725  	161.82084  	-15968.08821  	-4207.87425  	0.00486  	0.00003  	0.00423  	0.00449  	0.00650  	0.00000  	0.00000  
151.10881  	23.15432  	5.08640  	5.34977  	16.84796  	-1.18512  	0.02364  	0.54521  	0.53825  	-3.02442  	0.07134  	-0.08571  	-79.97183  	-1.30569  	158.85867  	160.91317  	-15969.86893  	-4207.87691  	0.00486  	0.00003  	0.00423  	0.00445  	0.00649  	0.00000  	0.00000  
152.11211  	23.15205  	5.08807  	5.35045  	16.84754  	-1.18512  	0.02381  	0.54501  	0.53906  	-3.02442  	0.07345  	-0.08566  	-79.94839  	-1.30077  	159.09615  	160.85240  	-15969.33441  	-4208.01850  	0.00486  	0.00003  	0.00424  	0.00446  	0.00649  	0.00000  	0.00000  
153.11544  	23.15551  	5.08777  	5.35011  	16.84706  	-1.18512  	0.02419  	0.54382  	0.53447  	-3.02442  	0.07239  	-0.08566  	-79.99820  	-1.30059  	157.74185  	160.50107  	-15969.92704  	-4207.98017  	0.00486  	0.00003  	0.00423  	0.00446  	0.00648  	0.00000  	0.00000  
154.11576  	23.15677  	5.08752  	5.35233  	16.84657  	-1.18512  	0.02501  	0.54179  	0.53057  	-3.02442  	0.07195  	-0.08573  	-80.02043  	-1.31282  	156.59185  	159.90396  	-15970.08028  	-4208.09835  	0.00485  	0.00003  	0.00423  	0.00448  	0.00647  	0.00000  	0.00000  
155.11907  	23.15761  	5.08879  	5.35123  	16.84608  	-1.18512  	0.02330  	0.53944  	0.53094  	-3.02442  	0.07382  	-0.08575  	-80.03730  	-1.30106  	156.69973  	159.20898  	-15970.14893  	-4208.10799  	0.00485  	0.00002  	0.00424  	0.00445  	0.00646  	0.00000  	0.00000  
156.12239  	23.16063  	5.08875  	5.35139  	16.84521  	-1.18512  	0.02401  	0.54154  	0.53268  	-3.02442  	0.07258  	-0.08569  	-80.08661  	-1.30204  	157.21504  	159.82925  	-15970.57592  	-4208.11544  	0.00485  	0.00003  	0.00423  	0.00446  	0.00647  	0.00000  	0.00000  
157.12371  	23.16074  	5.08872  	5.35142  	16.84401  	-1.18512  	0.02523  	0.54292  	0.53294  	-3.02442  	0.07379  	-0.08566  	-80.10336  	-1.30237  	157.29077  	160.23542  	-15970.36071  	-4208.11578  	0.00485  	0.00003  	0.00424  	0.00448  	0.00648  	0.00000  	0.00000  
158.12702  	23.16555  	5.08942  	5.35131  	16.84193  	-1.18512  	0.02482  	0.54537  	0.53752  	-3.02442  	0.07279  	-0.08569  	-80.19073  	-1.29834  	158.64448  	160.95908  	-15970.90271  	-4208.15051  	0.00486  	0.00003  	0.00423  	0.00448  	0.00649  	0.00000  	0.00000  
159.12932  	23.16574  	5.08893  	5.35221  	16.84112  	-1.18512  	0.02396  	0.54750  	0.53643  	-3.02442  	0.07118  	-0.08568  	-80.20326  	-1.30524  	158.32105  	161.58725  	-15970.77850  	-4208.17580  	0.00486  	0.00003  	0.00423  	0.00446  	0.00650  	0.00000  	0.00000  
160.13266  	23.17588  	5.08937  	5.35194  	16.84113  	-1.18512  	0.02372  	0.54868  	0.54181  	-3.02442  	0.07230  	-0.08570  	-80.33175  	-1.30175  	159.90944  	161.93732  	-15972.79530  	-4208.18566  	0.00487  	0.00003  	0.00423  	0.00446  	0.00650  	0.00000  	0.00000  
161.13399  	23.17228  	5.08903  	5.35308  	16.84050  	-1.18512  	0.02394  	0.54967  	0.53932  	-3.02442  	0.07237  	-0.08567  	-80.29405  	-1.30903  	159.17328  	162.22776  	-15971.95663  	-4208.23362  	0.00486  	0.00003  	0.00423  	0.00446  	0.00651  	0.00000  	0.00000  
162.13730  	23.17427  	5.09036  	5.35278  	16.84120  	-1.18512  	0.02420  	0.55160  	0.54350  	-3.02442  	0.07216  	-0.08567  	-80.31052  	-1.30101  	160.40773  	162.79724  	-15972.48934  	-4208.29531  	0.00487  	0.00003  	0.00423  	0.00446  	0.00652  	0.00000  	0.00000  
163.14062  	23.17186  	5.09004  	5.35340  	16.84189  	-1.18512  	0.02409  	0.55193  	0.54486  	-3.02442  	0.07250  	-0.08569  	-80.27113  	-1.30560  	160.80932  	162.89616  	-15972.14855  	-4208.31333  	0.00487  	0.00003  	0.00423  	0.00446  	0.00652  	0.00000  	0.00000  
164.14193  	23.17341  	5.09021  	5.35289  	16.84314  	-1.18512  	0.02452  	0.55336  	0.54187  	-3.02442  	0.07162  	-0.08564  	-80.27497  	-1.30231  	159.92750  	163.31938  	-15972.70366  	-4208.29288  	0.00487  	0.00003  	0.00423  	0.00447  	0.00652  	0.00000  	0.00000  
165.14525  	23.17306  	5.09084  	5.35398  	16.84483  	-1.18512  	0.02433  	0.55359  	0.54518  	-3.02442  	0.07239  	-0.08573  	-80.24907  	-1.30453  	160.90242  	163.38490  	-15972.97093  	-4208.39586  	0.00487  	0.00003  	0.00423  	0.00447  	0.00653  	0.00000  	0.00000  
