10/17/2024 15:42:11Time	T_hot_in(C)	T_cold_in(C)	T_cold_out(C)	T_hot_out(C)	mdot_cold(kg/s)	ASFASIFUAS(kg/s)	Diferencial_cold(bar)	Diferencial_hot(bar)	mdot_hot(kg/s)	ABS_cold(bar)	ABS_hot(bar)	q_cold(kW)	q_hot(kW)	ASFASYFY	Tau_cold_haste	Re_hot	Re_cold	U_global	PSIG_cold(bar)	R_fouling	PSIG_hot(bar)	PSID_hot(bar)	m_dot_hot	PSID_cold(bar)	m_dot_cold
1.74534  	0.00000  	0.00000  	0.00000  	0.00000  	-1.18512  	-0.20833  	-0.86278  	-2.50000  	-3.02442  	-1.25000  	-0.08628  	-0.00000  	-0.00000  	-737.84722  	-254.63905  	-9234.48090  	-3618.55272  	0.00000  	0.00000  	0.00000  	0.00000  	0.00000  	0.00000  	0.00000  
2.74666  	24.01006  	5.40507  	5.64645  	16.67776  	-1.18512  	0.01822  	0.40046  	0.38714  	-3.02442  	0.07111  	-0.08568  	-92.96956  	-1.19667  	114.26016  	118.19263  	-16106.33324  	-4244.90217  	0.00462  	0.00003  	0.00423  	0.00435  	0.00582  	0.00000  	0.00000  
3.74997  	24.01386  	5.40543  	5.64747  	16.67612  	-1.18512  	0.01987  	0.40432  	0.39037  	-3.02442  	0.07126  	-0.08569  	-93.03849  	-1.19991  	115.21251  	119.33044  	-16106.76398  	-4244.98569  	0.00462  	0.00003  	0.00423  	0.00438  	0.00584  	0.00000  	0.00000  
4.75329  	24.02060  	5.40692  	5.64842  	16.67489  	-1.18512  	0.01839  	0.40857  	0.39936  	-3.02442  	0.07318  	-0.08571  	-93.13958  	-1.19728  	117.86543  	120.58542  	-16107.86374  	-4245.13328  	0.00464  	0.00003  	0.00423  	0.00435  	0.00586  	0.00000  	0.00000  
5.75458  	24.02629  	5.40853  	5.64994  	16.67593  	-1.18512  	0.01904  	0.41179  	0.40011  	-3.02442  	0.07106  	-0.08566  	-93.19843  	-1.19682  	118.08816  	121.53421  	-16109.20737  	-4245.32229  	0.00464  	0.00003  	0.00423  	0.00437  	0.00587  	0.00000  	0.00000  
6.75793  	24.03213  	5.40904  	5.65119  	16.67853  	-1.18512  	0.02167  	0.41584  	0.40124  	-3.02442  	0.07150  	-0.08572  	-93.23948  	-1.20049  	118.42202  	122.72979  	-16110.89124  	-4245.42808  	0.00464  	0.00003  	0.00423  	0.00442  	0.00589  	0.00000  	0.00000  
7.76025  	24.03817  	5.40951  	5.65283  	16.68165  	-1.18512  	0.02037  	0.42065  	0.40485  	-3.02442  	0.06963  	-0.08570  	-93.27638  	-1.20628  	119.48600  	124.15066  	-16112.71767  	-4245.55579  	0.00465  	0.00003  	0.00422  	0.00439  	0.00591  	0.00000  	0.00000  
8.76057  	24.04486  	5.41101  	5.65345  	16.68816  	-1.18512  	0.01977  	0.42174  	0.40986  	-3.02442  	0.07298  	-0.08569  	-93.27864  	-1.20193  	120.96468  	124.47292  	-16115.35193  	-4245.68434  	0.00466  	0.00003  	0.00423  	0.00438  	0.00592  	0.00000  	0.00000  
9.76389  	24.05217  	5.41171  	5.65508  	16.69542  	-1.18512  	0.02055  	0.42477  	0.41516  	-3.02442  	0.07187  	-0.08566  	-93.27923  	-1.20649  	122.53008  	125.36709  	-16118.25960  	-4245.82460  	0.00466  	0.00003  	0.00423  	0.00439  	0.00593  	0.00000  	0.00000  
10.76720  	24.05715  	5.41184  	5.65588  	16.70325  	-1.18512  	0.02067  	0.42802  	0.41741  	-3.02442  	0.07148  	-0.08566  	-93.24307  	-1.20985  	123.19363  	126.32444  	-16120.81425  	-4245.88101  	0.00467  	0.00003  	0.00423  	0.00440  	0.00595  	0.00000  	0.00000  
11.76852  	24.06423  	5.41361  	5.65743  	16.71247  	-1.18512  	0.02062  	0.42967  	0.41663  	-3.02442  	0.07088  	-0.08566  	-93.21598  	-1.20875  	122.96329  	126.81374  	-16124.06766  	-4246.08101  	0.00467  	0.00003  	0.00423  	0.00440  	0.00595  	0.00000  	0.00000  
12.77184  	24.07087  	5.41561  	5.65937  	16.72363  	-1.18512  	0.02119  	0.43188  	0.41732  	-3.02442  	0.07096  	-0.08573  	-93.15860  	-1.20846  	123.16690  	127.46559  	-16127.62195  	-4246.31881  	0.00467  	0.00003  	0.00423  	0.00441  	0.00596  	0.00000  	0.00000  
13.77515  	24.07642  	5.41536  	5.66005  	16.73314  	-1.18512  	0.02118  	0.43223  	0.42330  	-3.02442  	0.07127  	-0.08565  	-93.10825  	-1.21306  	124.93244  	127.56703  	-16130.62884  	-4246.34550  	0.00468  	0.00003  	0.00423  	0.00441  	0.00597  	0.00000  	0.00000  
14.77648  	24.08209  	5.41560  	5.65984  	16.74362  	-1.18512  	0.02103  	0.42975  	0.41869  	-3.02442  	0.07076  	-0.08571  	-93.04728  	-1.21088  	123.57136  	126.83468  	-16133.85223  	-4246.34696  	0.00467  	0.00003  	0.00423  	0.00440  	0.00596  	0.00000  	0.00000  
15.77780  	24.08754  	5.41616  	5.66068  	16.75560  	-1.18512  	0.02070  	0.42802  	0.41626  	-3.02442  	0.07325  	-0.08566  	-92.96444  	-1.21222  	122.85337  	126.32637  	-16137.33226  	-4246.43161  	0.00467  	0.00003  	0.00423  	0.00440  	0.00595  	0.00000  	0.00000  
16.78111  	24.09288  	5.41688  	5.66104  	16.76713  	-1.18512  	0.02115  	0.42581  	0.41099  	-3.02442  	0.07210  	-0.08565  	-92.88600  	-1.21044  	121.29999  	125.67264  	-16140.70021  	-4246.49705  	0.00466  	0.00003  	0.00423  	0.00441  	0.00594  	0.00000  	0.00000  
17.78443  	24.09759  	5.41873  	5.66256  	16.77668  	-1.18512  	0.02195  	0.42275  	0.40843  	-3.02442  	0.07143  	-0.08564  	-92.82460  	-1.20882  	120.54213  	124.76872  	-16143.54830  	-4246.70054  	0.00465  	0.00003  	0.00423  	0.00442  	0.00592  	0.00000  	0.00000  
18.78575  	24.10219  	5.41962  	5.66429  	16.78623  	-1.18512  	0.02098  	0.42034  	0.40839  	-3.02442  	0.07227  	-0.08574  	-92.76173  	-1.21295  	120.53138  	124.05794  	-16146.37447  	-4246.85867  	0.00465  	0.00002  	0.00423  	0.00440  	0.00591  	0.00000  	0.00000  
19.78807  	24.10735  	5.41975  	5.66542  	16.79482  	-1.18512  	0.01973  	0.41733  	0.40284  	-3.02442  	0.07120  	-0.08572  	-92.71826  	-1.21797  	118.89425  	123.16918  	-16149.12320  	-4246.93466  	0.00464  	0.00003  	0.00423  	0.00438  	0.00590  	0.00000  	0.00000  
20.79036  	24.10984  	5.42060  	5.66625  	16.80208  	-1.18512  	0.02077  	0.41547  	0.40217  	-3.02442  	0.07328  	-0.08570  	-92.65765  	-1.21785  	118.69488  	122.62060  	-16151.07018  	-4247.03574  	0.00464  	0.00003  	0.00423  	0.00440  	0.00589  	0.00000  	0.00000  
21.79171  	24.11443  	5.42125  	5.66654  	16.80831  	-1.18512  	0.01941  	0.41155  	0.39946  	-3.02442  	0.07220  	-0.08570  	-92.63684  	-1.21603  	117.89660  	121.46346  	-16153.23134  	-4247.09282  	0.00464  	0.00003  	0.00423  	0.00437  	0.00587  	0.00000  	0.00000  
22.79503  	24.11689  	5.42097  	5.66661  	16.81281  	-1.18512  	0.02063  	0.40898  	0.39449  	-3.02442  	0.07189  	-0.08573  	-92.61111  	-1.21779  	116.43011  	120.70724  	-16154.62077  	-4247.08047  	0.00463  	0.00003  	0.00423  	0.00440  	0.00586  	0.00000  	0.00000  
23.79831  	24.12030  	5.42222  	5.66839  	16.81634  	-1.18512  	0.01921  	0.40569  	0.39016  	-3.02442  	0.07344  	-0.08566  	-92.60950  	-1.22040  	115.15106  	119.73630  	-16156.00804  	-4247.26272  	0.00462  	0.00003  	0.00424  	0.00437  	0.00584  	0.00000  	0.00000  
24.79966  	24.12417  	5.42223  	5.66801  	16.81775  	-1.18512  	0.01963  	0.40254  	0.38942  	-3.02442  	0.07274  	-0.08569  	-92.64072  	-1.21845  	114.93202  	118.80444  	-16157.06301  	-4247.24079  	0.00462  	0.00003  	0.00423  	0.00438  	0.00583  	0.00000  	0.00000  
25.80295  	24.12736  	5.42226  	5.66722  	16.81896  	-1.18512  	0.02038  	0.39853  	0.38499  	-3.02442  	0.07114  	-0.08571  	-92.66585  	-1.21442  	113.62481  	117.62265  	-16157.94252  	-4247.19484  	0.00462  	0.00003  	0.00423  	0.00439  	0.00581  	0.00000  	0.00000  
26.80627  	24.13021  	5.42325  	5.66795  	16.81981  	-1.18512  	0.01941  	0.39489  	0.38070  	-3.02442  	0.07236  	-0.08571  	-92.69111  	-1.21313  	112.35852  	116.54672  	-16158.68205  	-4247.29866  	0.00461  	0.00003  	0.00423  	0.00437  	0.00579  	0.00000  	0.00000  
27.80562  	24.13267  	5.42393  	5.66864  	16.81769  	-1.18512  	0.01938  	0.38937  	0.38111  	-3.02442  	0.07072  	-0.08567  	-92.74905  	-1.21316  	112.47948  	114.91903  	-16158.74921  	-4247.38196  	0.00461  	0.00003  	0.00423  	0.00437  	0.00577  	0.00000  	0.00000  
28.80891  	24.13563  	5.42400  	5.66844  	16.81509  	-1.18512  	0.01917  	0.38685  	0.37263  	-3.02442  	0.07207  	-0.08568  	-92.81964  	-1.21183  	109.97620  	114.17576  	-16158.81976  	-4247.37350  	0.00460  	0.00003  	0.00423  	0.00437  	0.00576  	0.00000  	0.00000  
29.81225  	24.13775  	5.42454  	5.66954  	16.81136  	-1.18512  	0.01999  	0.38301  	0.37166  	-3.02442  	0.07092  	-0.08570  	-92.89382  	-1.21461  	109.69012  	113.04183  	-16158.49817  	-4247.47268  	0.00459  	0.00003  	0.00423  	0.00438  	0.00574  	0.00000  	0.00000  
30.81358  	24.14070  	5.42547  	5.66931  	16.80637  	-1.18512  	0.01970  	0.38235  	0.37033  	-3.02442  	0.07113  	-0.08572  	-92.99447  	-1.20888  	109.29921  	112.84526  	-16158.09192  	-4247.51471  	0.00459  	0.00003  	0.00423  	0.00438  	0.00574  	0.00000  	0.00000  
31.81588  	24.14290  	5.42509  	5.66815  	16.80095  	-1.18512  	0.01805  	0.38531  	0.37434  	-3.02442  	0.07092  	-0.08566  	-93.09103  	-1.20496  	110.48142  	113.72082  	-16157.44867  	-4247.42196  	0.00460  	0.00003  	0.00423  	0.00435  	0.00575  	0.00000  	0.00000  
32.81821  	24.14485  	5.42472  	5.66916  	16.79482  	-1.18512  	0.01950  	0.38989  	0.37672  	-3.02442  	0.07266  	-0.08571  	-93.19358  	-1.21183  	111.18382  	115.07105  	-16156.61382  	-4247.46074  	0.00460  	0.00003  	0.00423  	0.00437  	0.00577  	0.00000  	0.00000  
33.81954  	24.14918  	5.42437  	5.66922  	16.78872  	-1.18512  	0.01953  	0.39488  	0.38052  	-3.02442  	0.07124  	-0.08571  	-93.32574  	-1.21384  	112.30523  	116.54466  	-16156.25991  	-4247.44338  	0.00461  	0.00003  	0.00423  	0.00437  	0.00579  	0.00000  	0.00000  
34.82285  	24.15338  	5.42517  	5.66953  	16.78351  	-1.18512  	0.02048  	0.40028  	0.38386  	-3.02442  	0.07180  	-0.08565  	-93.44508  	-1.21143  	113.29335  	118.13708  	-16156.05740  	-4247.51032  	0.00461  	0.00003  	0.00423  	0.00439  	0.00582  	0.00000  	0.00000  
35.82614  	24.15817  	5.42551  	5.67007  	16.77906  	-1.18512  	0.01966  	0.40543  	0.38937  	-3.02442  	0.07253  	-0.08569  	-93.56224  	-1.21244  	114.91820  	119.65774  	-16156.12777  	-4247.56306  	0.00462  	0.00003  	0.00423  	0.00438  	0.00584  	0.00000  	0.00000  
36.82749  	24.16542  	5.42665  	5.66901  	16.77805  	-1.18512  	0.01984  	0.40800  	0.39623  	-3.02442  	0.07086  	-0.08568  	-93.66691  	-1.20154  	116.94215  	120.41530  	-16157.37322  	-4247.56799  	0.00463  	0.00003  	0.00423  	0.00438  	0.00585  	0.00000  	0.00000  
37.82881  	24.17081  	5.42601  	5.66921  	16.77821  	-1.18512  	0.01995  	0.41176  	0.39705  	-3.02442  	0.07288  	-0.08569  	-93.73321  	-1.20570  	117.18398  	121.52523  	-16158.48214  	-4247.54153  	0.00464  	0.00003  	0.00423  	0.00438  	0.00587  	0.00000  	0.00000  
38.83213  	24.17591  	5.42569  	5.66921  	16.77923  	-1.18512  	0.01972  	0.41540  	0.40616  	-3.02442  	0.07266  	-0.08565  	-93.78498  	-1.20727  	119.87242  	122.60031  	-16159.70457  	-4247.52245  	0.00465  	0.00003  	0.00423  	0.00438  	0.00589  	0.00000  	0.00000  
39.83445  	24.18313  	5.42636  	5.66945  	16.78245  	-1.18512  	0.02034  	0.41797  	0.40356  	-3.02442  	0.07103  	-0.08567  	-93.83569  	-1.20513  	119.10700  	123.35990  	-16161.79029  	-4247.57699  	0.00465  	0.00003  	0.00423  	0.00439  	0.00590  	0.00000  	0.00000  
40.83577  	24.18866  	5.42625  	5.67094  	16.78764  	-1.18512  	0.02001  	0.42149  	0.40737  	-3.02442  	0.07102  	-0.08567  	-93.83999  	-1.21304  	120.22927  	124.39767  	-16163.93415  	-4247.66076  	0.00465  	0.00003  	0.00423  	0.00438  	0.00592  	0.00000  	0.00000  
41.83908  	24.19561  	5.42662  	5.67264  	16.79369  	-1.18512  	0.02155  	0.42461  	0.41372  	-3.02442  	0.07097  	-0.08571  	-93.85142  	-1.21966  	122.10406  	125.32036  	-16166.53216  	-4247.78577  	0.00466  	0.00003  	0.00423  	0.00441  	0.00593  	0.00000  	0.00000  
42.84240  	24.20105  	5.42687  	5.67315  	16.80026  	-1.18512  	0.02049  	0.42630  	0.41539  	-3.02442  	0.07187  	-0.08565  	-93.83712  	-1.22093  	122.59672  	125.81726  	-16168.93119  	-4247.83164  	0.00466  	0.00003  	0.00423  	0.00439  	0.00594  	0.00000  	0.00000  
43.84272  	24.20743  	5.42718  	5.67292  	16.80996  	-1.18512  	0.02142  	0.42936  	0.41534  	-3.02442  	0.07069  	-0.08569  	-93.79500  	-1.21831  	122.58182  	126.72087  	-16172.14566  	-4247.83624  	0.00466  	0.00003  	0.00423  	0.00441  	0.00595  	0.00000  	0.00000  
44.84505  	24.21400  	5.42815  	5.67347  	16.81913  	-1.18512  	0.02180  	0.43156  	0.42011  	-3.02442  	0.07041  	-0.08568  	-93.76193  	-1.21618  	123.99115  	127.37137  	-16175.29046  	-4247.92833  	0.00467  	0.00003  	0.00423  	0.00442  	0.00596  	0.00000  	0.00000  
45.84836  	24.21957  	5.42788  	5.67365  	16.82866  	-1.18512  	0.02171  	0.43311  	0.41982  	-3.02442  	0.07189  	-0.08568  	-93.71174  	-1.21842  	123.90432  	127.82879  	-16178.31173  	-4247.92315  	0.00467  	0.00003  	0.00423  	0.00442  	0.00597  	0.00000  	0.00000  
46.84965  	24.22538  	5.42805  	5.67330  	16.83886  	-1.18512  	0.01980  	0.43084  	0.41924  	-3.02442  	0.07372  	-0.08569  	-93.65601  	-1.21583  	123.73341  	127.15887  	-16181.51233  	-4247.91205  	0.00467  	0.00003  	0.00424  	0.00438  	0.00596  	0.00000  	0.00000  
47.85200  	24.23167  	5.42788  	5.67425  	16.85110  	-1.18512  	0.01941  	0.42841  	0.41560  	-3.02442  	0.07169  	-0.08569  	-93.58058  	-1.22138  	122.65987  	126.43961  	-16185.21715  	-4247.95930  	0.00466  	0.00003  	0.00423  	0.00437  	0.00595  	0.00000  	0.00000  
48.85531  	24.23632  	5.42791  	5.67523  	16.86172  	-1.18512  	0.02035  	0.42547  	0.41350  	-3.02442  	0.07280  	-0.08572  	-93.50491  	-1.22610  	122.03968  	125.57161  	-16188.27165  	-4248.01965  	0.00466  	0.00003  	0.00423  	0.00439  	0.00594  	0.00000  	0.00000  
49.85663  	24.24058  	5.42726  	5.67471  	16.87155  	-1.18512  	0.02178  	0.42286  	0.41004  	-3.02442  	0.07154  	-0.08569  	-93.43439  	-1.22676  	121.01793  	124.80151  	-16191.08960  	-4247.94956  	0.00466  	0.00003  	0.00423  	0.00442  	0.00592  	0.00000  	0.00000  
50.85895  	24.24553  	5.42895  	5.67449  	16.87990  	-1.18512  	0.02040  	0.41915  	0.40672  	-3.02442  	0.07307  	-0.08571  	-93.39109  	-1.21728  	120.03765  	123.70782  	-16193.74918  	-4248.03805  	0.00465  	0.00003  	0.00423  	0.00439  	0.00591  	0.00000  	0.00000  
51.86227  	24.24968  	5.42746  	5.67425  	16.89030  	-1.18512  	0.01990  	0.41678  	0.40735  	-3.02442  	0.07151  	-0.08564  	-93.31193  	-1.22344  	120.22558  	123.00879  	-16196.66031  	-4247.93373  	0.00465  	0.00003  	0.00423  	0.00438  	0.00590  	0.00000  	0.00000  
52.86359  	24.25287  	5.42720  	5.67647  	16.89555  	-1.18512  	0.01987  	0.41547  	0.40469  	-3.02442  	0.07136  	-0.08571  	-93.28570  	-1.23578  	119.44005  	122.62008  	-16198.34811  	-4248.05199  	0.00465  	0.00003  	0.00423  	0.00438  	0.00589  	0.00000  	0.00000  
53.86688  	24.25594  	5.42723  	5.67596  	16.90123  	-1.18512  	0.01979  	0.41188  	0.39895  	-3.02442  	0.07215  	-0.08574  	-93.25272  	-1.23311  	117.74428  	121.56119  	-16200.09901  	-4248.02350  	0.00464  	0.00003  	0.00423  	0.00438  	0.00587  	0.00000  	0.00000  
54.87022  	24.25900  	5.42655  	5.67532  	16.90499  	-1.18512  	0.02024  	0.40927  	0.39788  	-3.02442  	0.07066  	-0.08573  	-93.24383  	-1.23330  	117.43091  	120.79292  	-16201.46301  	-4247.94361  	0.00464  	0.00003  	0.00423  	0.00439  	0.00586  	0.00000  	0.00000  
55.87154  	24.26309  	5.42612  	5.67442  	16.90903  	-1.18512  	0.02065  	0.40658  	0.39486  	-3.02442  	0.07140  	-0.08565  	-93.24454  	-1.23095  	116.53940  	119.99808  	-16203.09143  	-4247.86318  	0.00463  	0.00003  	0.00423  	0.00440  	0.00585  	0.00000  	0.00000  
56.87386  	24.26529  	5.42623  	5.67411  	16.91049  	-1.18512  	0.02181  	0.40282  	0.38971  	-3.02442  	0.07326  	-0.08570  	-93.25388  	-1.22888  	115.01909  	118.88787  	-16203.82235  	-4247.85093  	0.00462  	0.00003  	0.00423  	0.00442  	0.00583  	0.00000  	0.00000  
57.87715  	24.26869  	5.42543  	5.67373  	16.91197  	-1.18512  	0.02044  	0.40033  	0.38690  	-3.02442  	0.07229  	-0.08568  	-93.27825  	-1.23096  	114.18941  	118.15239  	-16204.80060  	-4247.77993  	0.00462  	0.00003  	0.00423  	0.00439  	0.00582  	0.00000  	0.00000  
58.87850  	24.27178  	5.42522  	5.67331  	16.91144  	-1.18512  	0.02133  	0.39711  	0.38447  	-3.02442  	0.07061  	-0.08564  	-93.32420  	-1.22991  	113.47270  	117.20242  	-16205.31126  	-4247.74184  	0.00462  	0.00003  	0.00423  	0.00441  	0.00580  	0.00000  	0.00000  
59.87982  	24.27411  	5.42459  	5.67303  	16.91031  	-1.18512  	0.01933  	0.39378  	0.38133  	-3.02442  	0.07193  	-0.08574  	-93.36812  	-1.23167  	112.54567  	116.21871  	-16205.55208  	-4247.68699  	0.00461  	0.00003  	0.00423  	0.00437  	0.00579  	0.00000  	0.00000  
60.88311  	24.27707  	5.42423  	5.67266  	16.90742  	-1.18512  	0.01853  	0.39048  	0.37972  	-3.02442  	0.07269  	-0.08565  	-93.44228  	-1.23164  	112.07085  	115.24695  	-16205.56610  	-4247.64249  	0.00461  	0.00003  	0.00423  	0.00436  	0.00577  	0.00000  	0.00000  
61.88543  	24.28012  	5.42303  	5.67211  	16.90447  	-1.18512  	0.01992  	0.38705  	0.37287  	-3.02442  	0.07061  	-0.08574  	-93.51836  	-1.23486  	110.04953  	114.23259  	-16205.58634  	-4247.53711  	0.00460  	0.00003  	0.00423  	0.00438  	0.00576  	0.00000  	0.00000  
62.88579  	24.28166  	5.42370  	5.67162  	16.90060  	-1.18512  	0.01948  	0.38509  	0.37168  	-3.02442  	0.07266  	-0.08568  	-93.58698  	-1.22909  	109.69724  	113.65545  	-16205.11972  	-4247.54803  	0.00459  	0.00003  	0.00423  	0.00437  	0.00575  	0.00000  	0.00000  
63.88710  	24.28453  	5.42263  	5.66994  	16.89439  	-1.18512  	0.02060  	0.38126  	0.36565  	-3.02442  	0.07219  	-0.08573  	-93.70206  	-1.22602  	107.91731  	112.52340  	-16204.45099  	-4247.38148  	0.00459  	0.00003  	0.00423  	0.00440  	0.00573  	0.00000  	0.00000  
64.89042  	24.28741  	5.42220  	5.66799  	16.88746  	-1.18512  	0.01728  	0.38421  	0.37466  	-3.02442  	0.07177  	-0.08569  	-93.82660  	-1.21852  	110.57557  	113.39543  	-16203.63960  	-4247.23773  	0.00460  	0.00003  	0.00423  	0.00433  	0.00575  	0.00000  	0.00000  
65.89174  	24.28963  	5.42082  	5.66725  	16.88148  	-1.18512  	0.01805  	0.38918  	0.37859  	-3.02442  	0.07133  	-0.08569  	-93.93056  	-1.22167  	111.73606  	114.86168  	-16202.88876  	-4247.10986  	0.00461  	0.00003  	0.00423  	0.00435  	0.00577  	0.00000  	0.00000  
66.89406  	24.29304  	5.42021  	5.66737  	16.87469  	-1.18512  	0.01971  	0.39390  	0.37973  	-3.02442  	0.07329  	-0.08568  	-94.05999  	-1.22533  	112.07212  	116.25598  	-16202.21131  	-4247.07999  	0.00461  	0.00003  	0.00423  	0.00438  	0.00579  	0.00000  	0.00000  
67.89638  	24.29731  	5.41884  	5.66596  	16.86898  	-1.18512  	0.01991  	0.39785  	0.38380  	-3.02442  	0.07134  	-0.08570  	-94.18648  	-1.22514  	113.27342  	117.42233  	-16201.92423  	-4246.91218  	0.00461  	0.00003  	0.00423  	0.00438  	0.00581  	0.00000  	0.00000  
68.89570  	24.30192  	5.41804  	5.66518  	16.86508  	-1.18512  	0.01849  	0.40293  	0.39136  	-3.02442  	0.07274  	-0.08564  	-94.29443  	-1.22519  	115.50574  	118.91890  	-16202.06648  	-4246.81661  	0.00463  	0.00003  	0.00423  	0.00436  	0.00583  	0.00000  	0.00000  
69.89703  	24.30728  	5.41684  	5.66480  	16.86325  	-1.18512  	0.02047  	0.40725  	0.39480  	-3.02442  	0.07042  	-0.08571  	-94.38571  	-1.22929  	116.51951  	120.19621  	-16202.77308  	-4246.72184  	0.00463  	0.00003  	0.00423  	0.00439  	0.00585  	0.00000  	0.00000  
70.90032  	24.31293  	5.41674  	5.66389  	16.86241  	-1.18512  	0.02033  	0.41134  	0.39924  	-3.02442  	0.07404  	-0.08566  	-94.46804  	-1.22530  	117.83193  	121.40227  	-16203.73429  	-4246.66036  	0.00464  	0.00003  	0.00424  	0.00439  	0.00587  	0.00000  	0.00000  
71.90064  	24.31873  	5.41601  	5.66424  	16.86305  	-1.18512  	0.02012  	0.41455  	0.40288  	-3.02442  	0.07039  	-0.08568  	-94.53339  	-1.23065  	118.90546  	122.35022  	-16205.02441  	-4246.63749  	0.00464  	0.00003  	0.00423  	0.00439  	0.00589  	0.00000  	0.00000  
72.90298  	24.32487  	5.41437  	5.66315  	16.86551  	-1.18512  	0.02033  	0.41835  	0.40865  	-3.02442  	0.07067  	-0.08558  	-94.58001  	-1.23335  	120.60704  	123.47222  	-16206.74377  	-4246.47259  	0.00465  	0.00003  	0.00423  	0.00439  	0.00590  	0.00000  	0.00000  
73.90431  	24.33042  	5.41383  	5.66213  	16.87009  	-1.18512  	0.01995  	0.42223  	0.41013  	-3.02442  	0.07152  	-0.08564  	-94.59240  	-1.23097  	121.04458  	124.61734  	-16208.76979  	-4246.37852  	0.00466  	0.00003  	0.00423  	0.00438  	0.00592  	0.00000  	0.00000  
74.90463  	24.33643  	5.41359  	5.66219  	16.87577  	-1.18512  	0.02011  	0.42496  	0.41432  	-3.02442  	0.07227  	-0.08565  	-94.59659  	-1.23247  	122.28080  	125.42219  	-16211.10932  	-4246.36771  	0.00466  	0.00003  	0.00423  	0.00439  	0.00593  	0.00000  	0.00000  
75.90792  	24.34321  	5.41102  	5.66060  	16.88301  	-1.18512  	0.02144  	0.42775  	0.41415  	-3.02442  	0.07305  	-0.08565  	-94.59081  	-1.23732  	122.23069  	126.24431  	-16213.91599  	-4246.11675  	0.00466  	0.00003  	0.00423  	0.00441  	0.00595  	0.00000  	0.00000  
76.91026  	24.34931  	5.41038  	5.65950  	16.89088  	-1.18512  	0.02152  	0.42805  	0.41456  	-3.02442  	0.07227  	-0.08574  	-94.56845  	-1.23507  	122.35269  	126.33445  	-16216.71284  	-4246.01106  	0.00466  	0.00002  	0.00423  	0.00441  	0.00595  	0.00000  	0.00000  
77.91159  	24.35519  	5.40892  	5.65821  	16.90034  	-1.18512  	0.02066  	0.43016  	0.41893  	-3.02442  	0.07142  	-0.08570  	-94.52315  	-1.23586  	123.64370  	126.95564  	-16219.78463  	-4245.84521  	0.00467  	0.00003  	0.00423  	0.00440  	0.00596  	0.00000  	0.00000  
78.91390  	24.36116  	5.40708  	5.65612  	16.90999  	-1.18512  	0.02038  	0.43181  	0.42132  	-3.02442  	0.07220  	-0.08565  	-94.47661  	-1.23460  	124.34665  	127.44333  	-16222.91151  	-4245.60801  	0.00467  	0.00003  	0.00423  	0.00439  	0.00596  	0.00000  	0.00000  
79.91522  	24.36658  	5.40716  	5.65586  	16.91953  	-1.18512  	0.02057  	0.43357  	0.42011  	-3.02442  	0.07199  	-0.08566  	-94.42431  	-1.23297  	123.99205  	127.96206  	-16225.90751  	-4245.59676  	0.00467  	0.00003  	0.00423  	0.00439  	0.00597  	0.00000  	0.00000  
80.91555  	24.37096  	5.40592  	5.65522  	16.93115  	-1.18512  	0.02127  	0.43136  	0.41730  	-3.02442  	0.07120  	-0.08568  	-94.33250  	-1.23595  	123.16211  	127.31063  	-16229.10970  	-4245.48330  	0.00467  	0.00003  	0.00423  	0.00441  	0.00596  	0.00000  	0.00000  
81.91787  	24.37722  	5.40486  	5.65540  	16.94086  	-1.18512  	0.02046  	0.42792  	0.41395  	-3.02442  	0.07157  	-0.08568  	-94.28885  	-1.24208  	122.17372  	126.29641  	-16232.30793  	-4245.43077  	0.00466  	0.00003  	0.00423  	0.00439  	0.00595  	0.00000  	0.00000  
82.91819  	24.38215  	5.40387  	5.65548  	16.95176  	-1.18512  	0.01927  	0.42608  	0.41297  	-3.02442  	0.07123  	-0.08574  	-94.21316  	-1.24737  	121.88431  	125.75355  	-16235.47859  	-4245.37533  	0.00466  	0.00003  	0.00423  	0.00437  	0.00594  	0.00000  	0.00000  
83.91852  	24.38684  	5.40222  	5.65252  	16.96246  	-1.18512  	0.02081  	0.42437  	0.40982  	-3.02442  	0.07327  	-0.08570  	-94.13705  	-1.24091  	120.95399  	125.24735  	-16238.55989  	-4245.09692  	0.00466  	0.00003  	0.00423  	0.00440  	0.00593  	0.00000  	0.00000  
84.92084  	24.39110  	5.40087  	5.65167  	16.97122  	-1.18512  	0.02184  	0.42145  	0.40566  	-3.02442  	0.07278  	-0.08573  	-94.07992  	-1.24339  	119.72465  	124.38755  	-16241.16928  	-4244.96402  	0.00465  	0.00003  	0.00423  	0.00442  	0.00592  	0.00000  	0.00000  
85.92213  	24.39414  	5.40018  	5.65063  	16.97800  	-1.18512  	0.01963  	0.41786  	0.40293  	-3.02442  	0.07202  	-0.08570  	-94.03261  	-1.24163  	118.92159  	123.32655  	-16243.13709  	-4244.85942  	0.00464  	0.00003  	0.00423  	0.00438  	0.00590  	0.00000  	0.00000  
86.92248  	24.39858  	5.39873  	5.64914  	16.98545  	-1.18512  	0.02067  	0.41589  	0.40152  	-3.02442  	0.07311  	-0.08563  	-93.99455  	-1.24141  	118.50319  	122.74466  	-16245.51749  	-4244.68227  	0.00464  	0.00003  	0.00423  	0.00440  	0.00589  	0.00000  	0.00000  
87.92480  	24.40161  	5.39762  	5.64817  	16.99105  	-1.18512  	0.02036  	0.41264  	0.39871  	-3.02442  	0.07342  	-0.08575  	-93.96195  	-1.24214  	117.67435  	121.78713  	-16247.24814  	-4244.55649  	0.00464  	0.00002  	0.00423  	0.00439  	0.00588  	0.00000  	0.00000  
88.92709  	24.40433  	5.39692  	5.64735  	16.99406  	-1.18512  	0.01926  	0.40919  	0.39576  	-3.02442  	0.07136  	-0.08574  	-93.95835  	-1.24151  	116.80511  	120.76797  	-16248.39503  	-4244.46502  	0.00463  	0.00003  	0.00423  	0.00437  	0.00586  	0.00000  	0.00000  
89.93044  	24.40728  	5.39570  	5.64636  	16.99610  	-1.18512  	0.02026  	0.40722  	0.39250  	-3.02442  	0.07195  	-0.08572  	-93.96998  	-1.24265  	115.84172  	120.18756  	-16249.39515  	-4244.33165  	0.00463  	0.00003  	0.00423  	0.00439  	0.00585  	0.00000  	0.00000  
90.93176  	24.41106  	5.39429  	5.64445  	16.99773  	-1.18512  	0.01924  	0.40324  	0.38798  	-3.02442  	0.07200  	-0.08571  	-93.99728  	-1.24019  	114.50818  	119.01156  	-16250.48038  	-4244.13114  	0.00462  	0.00003  	0.00423  	0.00437  	0.00583  	0.00000  	0.00000  
91.93507  	24.41326  	5.39097  	5.64102  	16.99902  	-1.18512  	0.01943  	0.40001  	0.38499  	-3.02442  	0.07380  	-0.08568  	-94.00900  	-1.23965  	113.62425  	118.05945  	-16251.17826  	-4243.72414  	0.00462  	0.00003  	0.00424  	0.00437  	0.00582  	0.00000  	0.00000  
92.93839  	24.41585  	5.38999  	5.63875  	16.99750  	-1.18512  	0.01926  	0.39672  	0.38646  	-3.02442  	0.07060  	-0.08569  	-94.06113  	-1.23326  	114.05810  	117.08858  	-16251.39161  	-4243.52721  	0.00462  	0.00003  	0.00423  	0.00437  	0.00580  	0.00000  	0.00000  
93.93968  	24.41811  	5.38809  	5.63652  	16.99600  	-1.18512  	0.01994  	0.39362  	0.38212  	-3.02442  	0.07236  	-0.08571  	-94.10881  	-1.23164  	112.77884  	116.17191  	-16251.54664  	-4243.27809  	0.00461  	0.00003  	0.00423  	0.00438  	0.00579  	0.00000  	0.00000  
94.94303  	24.42150  	5.38627  	5.63494  	16.99263  	-1.18512  	0.01991  	0.39138  	0.37704  	-3.02442  	0.07201  	-0.08567  	-94.19462  	-1.23281  	111.27937  	115.51149  	-16251.55048  	-4243.07241  	0.00460  	0.00003  	0.00423  	0.00438  	0.00578  	0.00000  	0.00000  
95.94634  	24.42408  	5.38527  	5.63444  	16.98850  	-1.18512  	0.02015  	0.38902  	0.37449  	-3.02442  	0.06976  	-0.08567  	-94.27972  	-1.23526  	110.52638  	114.81509  	-16251.23800  	-4242.98255  	0.00460  	0.00003  	0.00422  	0.00439  	0.00577  	0.00000  	0.00000  
96.94766  	24.42666  	5.38361  	5.63324  	16.98309  	-1.18512  	0.02080  	0.38547  	0.37237  	-3.02442  	0.07146  	-0.08566  	-94.38118  	-1.23756  	109.89978  	113.76626  	-16250.67104  	-4242.80955  	0.00460  	0.00003  	0.00423  	0.00440  	0.00575  	0.00000  	0.00000  
97.95098  	24.42853  	5.38175  	5.63164  	16.97842  	-1.18512  	0.02023  	0.38379  	0.37145  	-3.02442  	0.07083  	-0.08568  	-94.46410  	-1.23884  	109.62795  	113.27115  	-16250.11154  	-4242.60053  	0.00459  	0.00003  	0.00423  	0.00439  	0.00574  	0.00000  	0.00000  
98.95427  	24.43111  	5.38128  	5.62953  	16.96973  	-1.18512  	0.01969  	0.38718  	0.37171  	-3.02442  	0.07182  	-0.08571  	-94.60705  	-1.23069  	109.70734  	114.27263  	-16248.88674  	-4242.44520  	0.00459  	0.00003  	0.00423  	0.00438  	0.00576  	0.00000  	0.00000  
99.95562  	24.43525  	5.37986  	5.62747  	16.96438  	-1.18512  	0.02031  	0.39184  	0.37844  	-3.02442  	0.07169  	-0.08569  	-94.72749  	-1.22757  	111.69143  	115.64583  	-16248.64454  	-4242.23551  	0.00461  	0.00003  	0.00423  	0.00439  	0.00578  	0.00000  	0.00000  
100.95893  	24.43887  	5.37914  	5.62702  	16.95782  	-1.18512  	0.01999  	0.39602  	0.38572  	-3.02442  	0.07181  	-0.08571  	-94.85653  	-1.22887  	113.83958  	116.88089  	-16248.05652  	-4242.16428  	0.00462  	0.00003  	0.00423  	0.00438  	0.00580  	0.00000  	0.00000  
101.96225  	24.44218  	5.37720  	5.62468  	16.95237  	-1.18512  	0.01924  	0.40102  	0.38840  	-3.02442  	0.07104  	-0.08575  	-94.96765  	-1.22693  	114.63301  	118.35771  	-16247.62546  	-4241.90658  	0.00462  	0.00002  	0.00423  	0.00437  	0.00582  	0.00000  	0.00000  
102.96357  	24.44751  	5.37553  	5.62377  	16.94821  	-1.18512  	0.02062  	0.40571  	0.39241  	-3.02442  	0.07160  	-0.08571  	-95.08818  	-1.23067  	115.81607  	119.74162  	-16247.86051  	-4241.75095  	0.00463  	0.00003  	0.00423  	0.00440  	0.00584  	0.00000  	0.00000  
103.96589  	24.45325  	5.37396  	5.62230  	16.94657  	-1.18512  	0.01981  	0.40919  	0.39756  	-3.02442  	0.07251  	-0.08569  	-95.18168  	-1.23114  	117.33653  	120.76712  	-16248.68101  	-4241.56709  	0.00464  	0.00003  	0.00423  	0.00438  	0.00586  	0.00000  	0.00000  
104.96918  	24.45878  	5.37169  	5.62072  	16.94554  	-1.18512  	0.02128  	0.41272  	0.40159  	-3.02442  	0.07245  	-0.08570  	-95.26499  	-1.23458  	118.52626  	121.81020  	-16249.58457  	-4241.33483  	0.00464  	0.00003  	0.00423  	0.00441  	0.00588  	0.00000  	0.00000  
105.96950  	24.46468  	5.36921  	5.61865  	16.94701  	-1.18512  	0.02036  	0.41702  	0.40356  	-3.02442  	0.07215  	-0.08565  	-95.32125  	-1.23664  	119.10639  	123.08017  	-16251.06177  	-4241.06022  	0.00465  	0.00003  	0.00423  	0.00439  	0.00590  	0.00000  	0.00000  
106.96983  	24.47094  	5.36883  	5.61701  	16.95053  	-1.18512  	0.02103  	0.42098  	0.40806  	-3.02442  	0.07273  	-0.08569  	-95.35605  	-1.23039  	120.43582  	124.24792  	-16253.01977  	-4240.93861  	0.00465  	0.00003  	0.00423  	0.00440  	0.00591  	0.00000  	0.00000  
107.97115  	24.47746  	5.36792  	5.61759  	16.95478  	-1.18512  	0.02146  	0.42317  	0.41329  	-3.02442  	0.07316  	-0.08568  	-95.38483  	-1.23777  	121.97734  	124.89272  	-16255.17977  	-4240.91894  	0.00466  	0.00003  	0.00423  	0.00441  	0.00592  	0.00000  	0.00000  
108.97050  	24.48283  	5.36651  	5.61659  	16.96051  	-1.18512  	0.01922  	0.42621  	0.41291  	-3.02442  	0.07310  	-0.08567  	-95.38026  	-1.23979  	121.86715  	125.79083  	-16257.40189  	-4240.77387  	0.00466  	0.00003  	0.00423  	0.00437  	0.00594  	0.00000  	0.00000  
109.97083  	24.48854  	5.36455  	5.61610  	16.96745  	-1.18512  	0.02023  	0.42842  	0.41764  	-3.02442  	0.07148  	-0.08568  	-95.36477  	-1.24708  	123.26133  	126.44467  	-16259.93716  	-4240.62580  	0.00467  	0.00003  	0.00423  	0.00439  	0.00595  	0.00000  	0.00000  
