10/21/2024 10:46:52Time	T_hot_in(C)	T_cold_in(C)	T_cold_out(C)	T_hot_out(C)	mdot_cold(kg/s)	ASFASIFUAS(kg/s)	Diferencial_cold(bar)	Diferencial_hot(bar)	mdot_hot(kg/s)	ABS_cold(bar)	ABS_hot(bar)	q_cold(kW)	q_hot(kW)	ASFASYFY	Tau_cold_haste	Re_hot	Re_cold	U_global	PSIG_cold(bar)	R_fouling	PSIG_hot(bar)	PSID_hot(bar)	m_dot_hot	PSID_cold(bar)	m_dot_cold
1.73937  	0.00000  	0.00000  	0.00000  	0.00000  	-1.18512  	-0.20833  	-0.86278  	-2.50000  	-3.02442  	-1.25000  	-0.08628  	-0.00000  	-0.00000  	-737.84722  	-254.63905  	-9234.48090  	-3618.55272  	0.00000  	0.00000  	0.00000  	0.00000  	0.00000  	0.00000  	0.00000  
2.74166  	33.07672  	5.12399  	5.52881  	26.23127  	-1.18512  	0.04599  	1.31949  	1.35388  	-3.02442  	0.07229  	-0.08561  	-86.80401  	-2.00684  	399.58168  	389.43137  	-20006.98399  	-4220.88324  	0.00617  	0.00003  	0.00423  	0.00488  	0.01005  	0.00000  	0.00000  
3.74501  	33.07659  	5.12446  	5.52760  	26.23116  	-1.18512  	0.04702  	1.31927  	1.34998  	-3.02442  	0.06904  	-0.08569  	-86.80376  	-1.99857  	398.43079  	389.36734  	-20006.93106  	-4220.83841  	0.00616  	0.00003  	0.00422  	0.00490  	0.01005  	0.00000  	0.00000  
4.74533  	33.07684  	5.12296  	5.52847  	26.23166  	-1.18512  	0.04707  	1.31991  	1.34771  	-3.02442  	0.06949  	-0.08567  	-86.80065  	-2.01031  	397.76154  	389.55746  	-20007.09517  	-4220.80060  	0.00616  	0.00003  	0.00422  	0.00490  	0.01006  	0.00000  	0.00000  
5.74765  	33.07754  	5.12297  	5.52817  	26.23181  	-1.18512  	0.04721  	1.31997  	1.35011  	-3.02442  	0.07101  	-0.08567  	-86.80755  	-2.00873  	398.47043  	389.57304  	-20007.28109  	-4220.78352  	0.00616  	0.00003  	0.00423  	0.00491  	0.01006  	0.00000  	0.00000  
6.74997  	33.07682  	5.12277  	5.52805  	26.23255  	-1.18512  	0.04783  	1.32001  	1.35028  	-3.02442  	0.07124  	-0.08565  	-86.78908  	-2.00912  	398.52126  	389.58640  	-20007.28543  	-4220.76387  	0.00616  	0.00003  	0.00423  	0.00492  	0.01006  	0.00000  	0.00000  
7.75229  	33.07775  	5.12259  	5.52659  	26.23206  	-1.18512  	0.04660  	1.32013  	1.34934  	-3.02442  	0.07111  	-0.08569  	-86.80718  	-2.00279  	398.24295  	389.62286  	-20007.38059  	-4220.66520  	0.00616  	0.00003  	0.00423  	0.00489  	0.01006  	0.00000  	0.00000  
8.75361  	33.07843  	5.12284  	5.52784  	26.23231  	-1.18512  	0.04798  	1.32158  	1.35082  	-3.02442  	0.07193  	-0.08566  	-86.81258  	-2.00774  	398.67954  	390.05033  	-20007.58135  	-4220.75535  	0.00616  	0.00003  	0.00423  	0.00492  	0.01006  	0.00000  	0.00000  
9.75692  	33.07895  	5.12341  	5.52858  	26.23234  	-1.18512  	0.04868  	1.32175  	1.35049  	-3.02442  	0.07167  	-0.08567  	-86.81874  	-2.00859  	398.58179  	390.09996  	-20007.70232  	-4220.83396  	0.00616  	0.00003  	0.00423  	0.00493  	0.01006  	0.00000  	0.00000  
10.76022  	33.08038  	5.12292  	5.52794  	26.23281  	-1.18512  	0.04793  	1.32116  	1.35012  	-3.02442  	0.07168  	-0.08572  	-86.83094  	-2.00780  	398.47233  	389.92701  	-20008.11783  	-4220.76636  	0.00616  	0.00003  	0.00423  	0.00492  	0.01006  	0.00000  	0.00000  
11.76154  	33.07982  	5.12399  	5.52908  	26.23470  	-1.18512  	0.04762  	1.31990  	1.34903  	-3.02442  	0.07085  	-0.08563  	-86.79970  	-2.00820  	398.15115  	389.55270  	-20008.40623  	-4220.89868  	0.00616  	0.00003  	0.00423  	0.00491  	0.01006  	0.00000  	0.00000  
12.76388  	33.08132  	5.12382  	5.52916  	26.23485  	-1.18512  	0.04790  	1.32013  	1.35275  	-3.02442  	0.07191  	-0.08558  	-86.81690  	-2.00945  	399.25057  	389.62285  	-20008.76528  	-4220.89411  	0.00616  	0.00003  	0.00423  	0.00492  	0.01006  	0.00000  	0.00000  
13.76720  	33.08120  	5.12375  	5.52851  	26.23489  	-1.18512  	0.04684  	1.32101  	1.35095  	-3.02442  	0.07235  	-0.08571  	-86.81499  	-2.00652  	398.71648  	389.88143  	-20008.74794  	-4220.85038  	0.00616  	0.00003  	0.00423  	0.00490  	0.01006  	0.00000  	0.00000  
14.76849  	33.08083  	5.12373  	5.52809  	26.23607  	-1.18512  	0.04812  	1.32090  	1.34908  	-3.02442  	0.07062  	-0.08563  	-86.79526  	-2.00457  	398.16693  	389.84905  	-20008.92555  	-4220.82367  	0.00616  	0.00003  	0.00423  	0.00492  	0.01006  	0.00000  	0.00000  
15.77181  	33.08174  	5.12363  	5.52814  	26.23713  	-1.18512  	0.04765  	1.32242  	1.34966  	-3.02442  	0.07146  	-0.08565  	-86.79338  	-2.00531  	398.33651  	390.29802  	-20009.35387  	-4220.82098  	0.00616  	0.00003  	0.00423  	0.00491  	0.01007  	0.00000  	0.00000  
16.77512  	33.08290  	5.12296  	5.52927  	26.23775  	-1.18512  	0.04714  	1.32172  	1.35198  	-3.02442  	0.07135  	-0.08569  	-86.80018  	-2.01423  	399.02312  	390.09064  	-20009.74010  	-4220.84880  	0.00616  	0.00003  	0.00423  	0.00491  	0.01006  	0.00000  	0.00000  
17.77645  	33.08359  	5.12307  	5.52980  	26.23787  	-1.18512  	0.04738  	1.32223  	1.34902  	-3.02442  	0.07093  	-0.08569  	-86.80730  	-2.01632  	398.14959  	390.24147  	-20009.91863  	-4220.88682  	0.00616  	0.00003  	0.00423  	0.00491  	0.01007  	0.00000  	0.00000  
18.77979  	33.08262  	5.12448  	5.52938  	26.23749  	-1.18512  	0.04926  	1.32186  	1.35029  	-3.02442  	0.07395  	-0.08568  	-86.79996  	-2.00728  	398.52324  	390.13261  	-20009.62386  	-4220.94673  	0.00616  	0.00003  	0.00424  	0.00495  	0.01007  	0.00000  	0.00000  
19.78311  	33.08422  	5.12486  	5.53038  	26.23809  	-1.18512  	0.04677  	1.32123  	1.35003  	-3.02442  	0.07056  	-0.08564  	-86.81249  	-2.01031  	398.44673  	389.94668  	-20010.10394  	-4221.02982  	0.00616  	0.00003  	0.00423  	0.00490  	0.01006  	0.00000  	0.00000  
20.78443  	33.08450  	5.12371  	5.52982  	26.23802  	-1.18512  	0.04646  	1.32145  	1.34939  	-3.02442  	0.07072  	-0.08563  	-86.81708  	-2.01327  	398.25694  	390.01220  	-20010.14891  	-4220.92655  	0.00616  	0.00003  	0.00423  	0.00489  	0.01006  	0.00000  	0.00000  
21.78575  	33.08457  	5.12484  	5.53003  	26.23789  	-1.18512  	0.04603  	1.32291  	1.35033  	-3.02442  	0.07155  	-0.08568  	-86.81963  	-2.00872  	398.53490  	390.44127  	-20010.13592  	-4221.00738  	0.00616  	0.00003  	0.00423  	0.00488  	0.01007  	0.00000  	0.00000  
22.78907  	33.08390  	5.12554  	5.53036  	26.23850  	-1.18512  	0.04793  	1.32246  	1.35062  	-3.02442  	0.07112  	-0.08567  	-86.80331  	-2.00684  	398.61920  	390.30867  	-20010.12158  	-4221.06907  	0.00616  	0.00003  	0.00423  	0.00492  	0.01007  	0.00000  	0.00000  
23.79039  	33.08541  	5.12587  	5.53100  	26.23859  	-1.18512  	0.04842  	1.32203  	1.35266  	-3.02442  	0.07275  	-0.08575  	-86.82135  	-2.00838  	399.22287  	390.18296  	-20010.47101  	-4221.12734  	0.00616  	0.00002  	0.00423  	0.00493  	0.01007  	0.00000  	0.00000  
24.79367  	33.08588  	5.12503  	5.53022  	26.23857  	-1.18512  	0.04635  	1.32192  	1.35227  	-3.02442  	0.07017  	-0.08564  	-86.82749  	-2.00870  	399.10601  	390.14932  	-20010.56933  	-4221.02982  	0.00616  	0.00003  	0.00422  	0.00489  	0.01007  	0.00000  	0.00000  
25.79699  	33.08566  	5.12429  	5.52896  	26.23918  	-1.18512  	0.04626  	1.32060  	1.35101  	-3.02442  	0.07163  	-0.08561  	-86.81705  	-2.00609  	398.73692  	389.76010  	-20010.65573  	-4220.90982  	0.00616  	0.00003  	0.00423  	0.00489  	0.01006  	0.00000  	0.00000  
26.79831  	33.08607  	5.12487  	5.52822  	26.23951  	-1.18512  	0.04840  	1.32214  	1.35218  	-3.02442  	0.07181  	-0.08565  	-86.81813  	-1.99959  	399.08141  	390.21381  	-20010.81594  	-4220.90032  	0.00616  	0.00003  	0.00423  	0.00493  	0.01007  	0.00000  	0.00000  
27.80066  	33.08684  	5.12410  	5.52904  	26.23998  	-1.18512  	0.04840  	1.32282  	1.34845  	-3.02442  	0.07085  	-0.08568  	-86.82191  	-2.00747  	397.98088  	390.41644  	-20011.08558  	-4220.90313  	0.00616  	0.00003  	0.00423  	0.00493  	0.01007  	0.00000  	0.00000  
28.80398  	33.08704  	5.12365  	5.52825  	26.24105  	-1.18512  	0.04787  	1.32354  	1.34958  	-3.02442  	0.07047  	-0.08578  	-86.81088  	-2.00576  	398.31348  	390.62936  	-20011.36278  	-4220.82882  	0.00616  	0.00002  	0.00423  	0.00492  	0.01007  	0.00000  	0.00000  
29.80629  	33.08672  	5.12284  	5.52803  	26.24205  	-1.18512  	0.04635  	1.32174  	1.35192  	-3.02442  	0.07221  	-0.08570  	-86.79409  	-2.00868  	399.00535  	390.09798  	-20011.51137  	-4220.76744  	0.00616  	0.00003  	0.00423  	0.00489  	0.01006  	0.00000  	0.00000  
30.80761  	33.08754  	5.12332  	5.52752  	26.24216  	-1.18512  	0.04633  	1.32242  	1.35005  	-3.02442  	0.06979  	-0.08565  	-86.80314  	-2.00376  	398.45120  	390.29837  	-20011.71344  	-4220.76545  	0.00616  	0.00003  	0.00422  	0.00489  	0.01007  	0.00000  	0.00000  
31.81090  	33.08845  	5.12339  	5.52814  	26.24195  	-1.18512  	0.04696  	1.32199  	1.35143  	-3.02442  	0.07170  	-0.08566  	-86.81737  	-2.00651  	398.86074  	390.17207  	-20011.86643  	-4220.80658  	0.00616  	0.00003  	0.00423  	0.00490  	0.01007  	0.00000  	0.00000  
32.81422  	33.08899  	5.12379  	5.52907  	26.24280  	-1.18512  	0.04645  	1.32113  	1.35493  	-3.02442  	0.07226  	-0.08562  	-86.81341  	-2.00910  	399.89209  	389.91607  	-20012.16866  	-4220.88654  	0.00617  	0.00003  	0.00423  	0.00489  	0.01006  	0.00000  	0.00000  
33.81554  	33.08944  	5.12334  	5.52856  	26.24397  	-1.18512  	0.04789  	1.32125  	1.34963  	-3.02442  	0.07216  	-0.08570  	-86.80431  	-2.00882  	398.32860  	389.95335  	-20012.52243  	-4220.82875  	0.00616  	0.00003  	0.00423  	0.00492  	0.01006  	0.00000  	0.00000  
34.81889  	33.08943  	5.12362  	5.52798  	26.24373  	-1.18512  	0.04685  	1.32169  	1.35183  	-3.02442  	0.07196  	-0.08569  	-86.80718  	-2.00457  	398.97638  	390.08121  	-20012.46878  	-4220.81036  	0.00616  	0.00003  	0.00423  	0.00490  	0.01006  	0.00000  	0.00000  
35.82220  	33.09063  	5.12366  	5.52776  	26.24377  	-1.18512  	0.04699  	1.32243  	1.35176  	-3.02442  	0.07045  	-0.08565  	-86.82185  	-2.00332  	398.95563  	390.29940  	-20012.73766  	-4220.80005  	0.00616  	0.00003  	0.00423  	0.00490  	0.01007  	0.00000  	0.00000  
36.82352  	33.09074  	5.12385  	5.52900  	26.24331  	-1.18512  	0.04791  	1.32352  	1.34894  	-3.02442  	0.07252  	-0.08576  	-86.82904  	-2.00851  	398.12583  	390.62344  	-20012.66255  	-4220.88595  	0.00616  	0.00002  	0.00423  	0.00492  	0.01007  	0.00000  	0.00000  
37.82684  	33.09121  	5.12429  	5.52864  	26.24358  	-1.18512  	0.04625  	1.32217  	1.35184  	-3.02442  	0.07064  	-0.08565  	-86.83162  	-2.00455  	398.98152  	390.22238  	-20012.82379  	-4220.89059  	0.00616  	0.00003  	0.00423  	0.00489  	0.01007  	0.00000  	0.00000  
38.82916  	33.09204  	5.12380  	5.52984  	26.24349  	-1.18512  	0.04710  	1.32219  	1.35171  	-3.02442  	0.07291  	-0.08571  	-86.84326  	-2.01287  	398.94278  	390.23053  	-20012.98527  	-4220.93366  	0.00616  	0.00003  	0.00423  	0.00490  	0.01007  	0.00000  	0.00000  
39.83048  	33.09221  	5.12453  	5.52985  	26.24465  	-1.18512  	0.04766  	1.32248  	1.35377  	-3.02442  	0.07337  	-0.08566  	-86.83068  	-2.00932  	399.55083  	390.31662  	-20013.27349  	-4220.97824  	0.00617  	0.00003  	0.00423  	0.00492  	0.01007  	0.00000  	0.00000  
40.83280  	33.09171  	5.12440  	5.52908  	26.24494  	-1.18512  	0.04698  	1.32247  	1.35256  	-3.02442  	0.07237  	-0.08567  	-86.82061  	-2.00617  	399.19315  	390.31176  	-20013.22842  	-4220.92367  	0.00616  	0.00003  	0.00423  	0.00490  	0.01007  	0.00000  	0.00000  
41.83612  	33.09210  	5.12438  	5.52974  	26.24464  	-1.18512  	0.04732  	1.32136  	1.35468  	-3.02442  	0.07297  	-0.08567  	-86.82942  	-2.00953  	399.82021  	389.98424  	-20013.24951  	-4220.96275  	0.00617  	0.00003  	0.00423  	0.00491  	0.01006  	0.00000  	0.00000  
42.83741  	33.09305  	5.12457  	5.52861  	26.24406  	-1.18512  	0.04858  	1.32255  	1.34751  	-3.02442  	0.07160  	-0.08567  	-86.84879  	-2.00302  	397.70219  	390.33634  	-20013.32945  	-4220.90578  	0.00616  	0.00003  	0.00423  	0.00493  	0.01007  	0.00000  	0.00000  
43.83976  	33.09258  	5.12456  	5.52903  	26.24459  	-1.18512  	0.04650  	1.32231  	1.35294  	-3.02442  	0.06979  	-0.08564  	-86.83631  	-2.00513  	399.30600  	390.26572  	-20013.34176  	-4220.93007  	0.00616  	0.00003  	0.00422  	0.00489  	0.01007  	0.00000  	0.00000  
44.84307  	33.09408  	5.12496  	5.52881  	26.24493  	-1.18512  	0.04653  	1.32229  	1.35371  	-3.02442  	0.07106  	-0.08562  	-86.85094  	-2.00205  	399.53181  	390.25939  	-20013.74227  	-4220.94135  	0.00617  	0.00003  	0.00423  	0.00489  	0.01007  	0.00000  	0.00000  
45.84439  	33.09445  	5.12579  	5.52967  	26.24529  	-1.18512  	0.04861  	1.32387  	1.34864  	-3.02442  	0.07247  	-0.08566  	-86.85103  	-2.00220  	398.03492  	390.72638  	-20013.90158  	-4221.04276  	0.00616  	0.00003  	0.00423  	0.00493  	0.01007  	0.00000  	0.00000  
46.84671  	33.09459  	5.12459  	5.52929  	26.24661  	-1.18512  	0.04781  	1.32253  	1.35106  	-3.02442  	0.07137  	-0.08565  	-86.83594  	-2.00626  	398.74911  	390.33097  	-20014.22012  	-4220.94775  	0.00616  	0.00003  	0.00423  	0.00492  	0.01007  	0.00000  	0.00000  
47.85003  	33.09557  	5.12438  	5.52959  	26.24697  	-1.18512  	0.04719  	1.32299  	1.34938  	-3.02442  	0.07206  	-0.08572  	-86.84387  	-2.00876  	398.25489  	390.46466  	-20014.51183  	-4220.95327  	0.00616  	0.00003  	0.00423  	0.00491  	0.01007  	0.00000  	0.00000  
48.85132  	33.09504  	5.12524  	5.53083  	26.24744  	-1.18512  	0.04748  	1.32232  	1.35285  	-3.02442  	0.07255  	-0.08567  	-86.83114  	-2.01068  	399.27985  	390.26716  	-20014.50008  	-4221.07946  	0.00616  	0.00003  	0.00423  	0.00491  	0.01007  	0.00000  	0.00000  
49.85466  	33.09626  	5.12450  	5.53097  	26.24794  	-1.18512  	0.04641  	1.32235  	1.35598  	-3.02442  	0.07092  	-0.08564  	-86.84031  	-2.01507  	400.20267  	390.27822  	-20014.87289  	-4221.04334  	0.00617  	0.00003  	0.00423  	0.00489  	0.01007  	0.00000  	0.00000  
50.85599  	33.09623  	5.12477  	5.53065  	26.24728  	-1.18512  	0.04664  	1.32123  	1.35029  	-3.02442  	0.07172  	-0.08570  	-86.84835  	-2.01207  	398.52186  	389.94624  	-20014.72314  	-4221.04020  	0.00616  	0.00003  	0.00423  	0.00490  	0.01006  	0.00000  	0.00000  
51.85927  	33.09716  	5.12505  	5.53079  	26.24925  	-1.18512  	0.04702  	1.32038  	1.34971  	-3.02442  	0.07010  	-0.08567  	-86.83524  	-2.01145  	398.35273  	389.69646  	-20015.35548  	-4221.06565  	0.00616  	0.00003  	0.00422  	0.00490  	0.01006  	0.00000  	0.00000  
52.86059  	33.09678  	5.12424  	5.53074  	26.24995  	-1.18512  	0.04650  	1.31959  	1.35049  	-3.02442  	0.07327  	-0.08569  	-86.82154  	-2.01517  	398.58176  	389.46253  	-20015.42495  	-4221.01403  	0.00616  	0.00003  	0.00423  	0.00489  	0.01006  	0.00000  	0.00000  
53.86391  	33.09709  	5.12432  	5.53109  	26.24965  	-1.18512  	0.04656  	1.31943  	1.35156  	-3.02442  	0.07259  	-0.08572  	-86.82914  	-2.01649  	398.89723  	389.41500  	-20015.42788  	-4221.03990  	0.00616  	0.00003  	0.00423  	0.00489  	0.01005  	0.00000  	0.00000  
54.86723  	33.09714  	5.12469  	5.53105  	26.24972  	-1.18512  	0.04576  	1.31920  	1.34973  	-3.02442  	0.07185  	-0.08575  	-86.82891  	-2.01448  	398.35674  	389.34862  	-20015.45220  	-4221.05970  	0.00616  	0.00002  	0.00423  	0.00488  	0.01005  	0.00000  	0.00000  
55.86858  	33.09892  	5.12429  	5.52967  	26.25032  	-1.18512  	0.04618  	1.32025  	1.34939  	-3.02442  	0.07159  	-0.08567  	-86.84384  	-2.00965  	398.25843  	389.65702  	-20015.97230  	-4220.95231  	0.00616  	0.00003  	0.00423  	0.00489  	0.01006  	0.00000  	0.00000  
56.87189  	33.09818  	5.12413  	5.52878  	26.25039  	-1.18512  	0.04720  	1.32087  	1.35085  	-3.02442  	0.07117  	-0.08569  	-86.83362  	-2.00600  	398.68871  	389.83973  	-20015.82632  	-4220.88934  	0.00616  	0.00003  	0.00423  	0.00491  	0.01006  	0.00000  	0.00000  
57.87518  	33.09947  	5.12533  	5.52887  	26.24985  	-1.18512  	0.04599  	1.32077  	1.34969  	-3.02442  	0.07291  	-0.08570  	-86.85688  	-2.00051  	398.34555  	389.80960  	-20015.98998  	-4220.96755  	0.00616  	0.00003  	0.00423  	0.00488  	0.01006  	0.00000  	0.00000  
58.87653  	33.09912  	5.12479  	5.52930  	26.25002  	-1.18512  	0.04692  	1.32152  	1.35015  	-3.02442  	0.07268  	-0.08559  	-86.85025  	-2.00528  	398.48212  	390.03075  	-20015.95035  	-4220.96048  	0.00616  	0.00003  	0.00423  	0.00490  	0.01006  	0.00000  	0.00000  
59.87985  	33.10018  	5.12476  	5.52906  	26.25076  	-1.18512  	0.04883  	1.32005  	1.34915  	-3.02442  	0.07121  	-0.08570  	-86.85436  	-2.00428  	398.18761  	389.59775  	-20016.34339  	-4220.94401  	0.00616  	0.00003  	0.00423  	0.00494  	0.01006  	0.00000  	0.00000  
60.88316  	33.10007  	5.12409  	5.52875  	26.25052  	-1.18512  	0.04713  	1.32164  	1.34971  	-3.02442  	0.07190  	-0.08565  	-86.85600  	-2.00608  	398.35324  	390.06654  	-20016.26522  	-4220.88507  	0.00616  	0.00003  	0.00423  	0.00490  	0.01006  	0.00000  	0.00000  
61.88448  	33.10016  	5.12427  	5.52930  	26.24996  	-1.18512  	0.04770  	1.32122  	1.34736  	-3.02442  	0.07119  	-0.08567  	-86.86421  	-2.00791  	397.65861  	389.94364  	-20016.16491  	-4220.92931  	0.00616  	0.00003  	0.00423  	0.00492  	0.01006  	0.00000  	0.00000  
62.88780  	33.10108  	5.12446  	5.53058  	26.24923  	-1.18512  	0.04769  	1.31997  	1.34962  	-3.02442  	0.07306  	-0.08565  	-86.88522  	-2.01333  	398.32441  	389.57507  	-20016.20529  	-4221.01752  	0.00616  	0.00003  	0.00423  	0.00492  	0.01006  	0.00000  	0.00000  
63.89111  	33.10096  	5.12528  	5.53013  	26.24957  	-1.18512  	0.04713  	1.32196  	1.34459  	-3.02442  	0.07097  	-0.08568  	-86.87931  	-2.00700  	396.84182  	390.16159  	-20016.25418  	-4221.03974  	0.00615  	0.00003  	0.00423  	0.00490  	0.01007  	0.00000  	0.00000  
64.89244  	33.10133  	5.12540  	5.53118  	26.25030  	-1.18512  	0.04681  	1.32018  	1.35311  	-3.02442  	0.07081  	-0.08567  	-86.87467  	-2.01164  	399.35682  	389.63708  	-20016.49484  	-4221.10996  	0.00616  	0.00003  	0.00423  	0.00490  	0.01006  	0.00000  	0.00000  
65.89476  	33.10199  	5.12596  	5.53152  	26.25020  	-1.18512  	0.04659  	1.32015  	1.35103  	-3.02442  	0.07173  	-0.08561  	-86.88421  	-2.01049  	398.74004  	389.62836  	-20016.61514  	-4221.16433  	0.00616  	0.00003  	0.00423  	0.00489  	0.01006  	0.00000  	0.00000  
66.89608  	33.10227  	5.12691  	5.53048  	26.25076  	-1.18512  	0.04697  	1.32158  	1.34689  	-3.02442  	0.07175  	-0.08568  	-86.88074  	-2.00063  	397.52089  	390.05081  	-20016.79925  	-4221.15899  	0.00616  	0.00003  	0.00423  	0.00490  	0.01006  	0.00000  	0.00000  
67.89740  	33.10178  	5.12609  	5.53062  	26.25031  	-1.18512  	0.04851  	1.32190  	1.34899  	-3.02442  	0.07248  	-0.08573  	-86.88027  	-2.00540  	398.13860  	390.14372  	-20016.59451  	-4221.11801  	0.00616  	0.00003  	0.00423  	0.00493  	0.01007  	0.00000  	0.00000  
68.89972  	33.10249  	5.12743  	5.53243  	26.25092  	-1.18512  	0.04631  	1.32161  	1.34994  	-3.02442  	0.07098  	-0.08561  	-86.88143  	-2.00773  	398.42014  	390.05961  	-20016.88131  	-4221.30733  	0.00616  	0.00003  	0.00423  	0.00489  	0.01006  	0.00000  	0.00000  
69.90303  	33.10290  	5.12787  	5.53222  	26.25091  	-1.18512  	0.04945  	1.32206  	1.35004  	-3.02442  	0.07233  	-0.08576  	-86.88672  	-2.00450  	398.44828  	390.19259  	-20016.96711  	-4221.32088  	0.00616  	0.00002  	0.00423  	0.00495  	0.01007  	0.00000  	0.00000  
70.90336  	33.10264  	5.12782  	5.53190  	26.25133  	-1.18512  	0.04753  	1.32213  	1.35240  	-3.02442  	0.07188  	-0.08568  	-86.87816  	-2.00314  	399.14651  	390.21271  	-20017.00272  	-4221.29873  	0.00616  	0.00003  	0.00423  	0.00491  	0.01007  	0.00000  	0.00000  
71.90667  	33.10405  	5.12820  	5.53309  	26.25265  	-1.18512  	0.04798  	1.32182  	1.35103  	-3.02442  	0.07228  	-0.08571  	-86.87922  	-2.00719  	398.74280  	390.11945  	-20017.59837  	-4221.39333  	0.00616  	0.00003  	0.00423  	0.00492  	0.01007  	0.00000  	0.00000  
72.90999  	33.10442  	5.12783  	5.53204  	26.25224  	-1.18512  	0.04819  	1.32160  	1.35157  	-3.02442  	0.07289  	-0.08567  	-86.88915  	-2.00383  	398.90226  	390.05604  	-20017.58956  	-4221.30846  	0.00616  	0.00003  	0.00423  	0.00493  	0.01006  	0.00000  	0.00000  
73.91131  	33.10527  	5.12833  	5.52997  	26.25233  	-1.18512  	0.04731  	1.32081  	1.35032  	-3.02442  	0.07080  	-0.08565  	-86.89890  	-1.99109  	398.53199  	389.82385  	-20017.79491  	-4221.21380  	0.00616  	0.00003  	0.00423  	0.00491  	0.01006  	0.00000  	0.00000  
74.91363  	33.10495  	5.12736  	5.53150  	26.25345  	-1.18512  	0.04704  	1.32119  	1.34791  	-3.02442  	0.07082  	-0.08562  	-86.88057  	-2.00347  	397.81964  	389.93315  	-20017.96744  	-4221.24700  	0.00616  	0.00003  	0.00423  	0.00490  	0.01006  	0.00000  	0.00000  
75.91692  	33.10598  	5.12796  	5.53248  	26.25294  	-1.18512  	0.04663  	1.32202  	1.35028  	-3.02442  	0.06944  	-0.08567  	-86.90016  	-2.00538  	398.52047  	390.17957  	-20018.08117  	-4221.34180  	0.00616  	0.00003  	0.00422  	0.00490  	0.01007  	0.00000  	0.00000  
76.92023  	33.10612  	5.12842  	5.53174  	26.25354  	-1.18512  	0.04624  	1.32187  	1.35114  	-3.02442  	0.07111  	-0.08572  	-86.89420  	-1.99942  	398.77406  	390.13632  	-20018.24236  	-4221.32576  	0.00616  	0.00003  	0.00423  	0.00489  	0.01007  	0.00000  	0.00000  
77.92155  	33.10658  	5.12803  	5.53158  	26.25362  	-1.18512  	0.04706  	1.32163  	1.34811  	-3.02442  	0.07173  	-0.08568  	-86.89921  	-2.00053  	397.87877  	390.06560  	-20018.36079  	-4221.29237  	0.00616  	0.00003  	0.00423  	0.00490  	0.01006  	0.00000  	0.00000  
78.92487  	33.10628  	5.12707  	5.53187  	26.25470  	-1.18512  	0.04674  	1.32160  	1.35233  	-3.02442  	0.07149  	-0.08571  	-86.88165  	-2.00670  	399.12615  	390.05628  	-20018.52992  	-4221.25201  	0.00616  	0.00003  	0.00423  	0.00490  	0.01006  	0.00000  	0.00000  
79.92822  	33.10740  	5.12781  	5.53137  	26.25474  	-1.18512  	0.04619  	1.32182  	1.34821  	-3.02442  	0.07055  	-0.08561  	-86.89528  	-2.00060  	397.91052  	390.11985  	-20018.78493  	-4221.26632  	0.00616  	0.00003  	0.00423  	0.00489  	0.01007  	0.00000  	0.00000  
80.92951  	33.10798  	5.12848  	5.53240  	26.25623  	-1.18512  	0.04810  	1.32139  	1.35207  	-3.02442  	0.07298  	-0.08572  	-86.88382  	-2.00240  	399.04820  	389.99457  	-20019.23449  	-4221.36820  	0.00616  	0.00003  	0.00423  	0.00492  	0.01006  	0.00000  	0.00000  
81.93282  	33.10808  	5.12853  	5.53235  	26.25618  	-1.18512  	0.04779  	1.32222  	1.35260  	-3.02442  	0.07007  	-0.08570  	-86.88565  	-2.00189  	399.20539  	390.23855  	-20019.24661  	-4221.36864  	0.00616  	0.00003  	0.00422  	0.00492  	0.01007  	0.00000  	0.00000  
82.93514  	33.10879  	5.12740  	5.53188  	26.25699  	-1.18512  	0.04786  	1.32272  	1.34711  	-3.02442  	0.07266  	-0.08568  	-86.88437  	-2.00515  	397.58537  	390.38635  	-20019.57853  	-4221.27211  	0.00616  	0.00003  	0.00423  	0.00492  	0.01007  	0.00000  	0.00000  
83.93646  	33.10887  	5.12739  	5.53194  	26.25786  	-1.18512  	0.04716  	1.32273  	1.35216  	-3.02442  	0.07189  	-0.08564  	-86.87438  	-2.00552  	399.07615  	390.38960  	-20019.78289  	-4221.27554  	0.00616  	0.00003  	0.00423  	0.00491  	0.01007  	0.00000  	0.00000  
84.93978  	33.10889  	5.12733  	5.53220  	26.25680  	-1.18512  	0.04689  	1.32289  	1.35290  	-3.02442  	0.07078  	-0.08566  	-86.88810  	-2.00713  	399.29243  	390.43665  	-20019.55842  	-4221.28753  	0.00616  	0.00003  	0.00423  	0.00490  	0.01007  	0.00000  	0.00000  
85.94310  	33.11008  	5.12806  	5.53268  	26.25704  	-1.18512  	0.04703  	1.32171  	1.35483  	-3.02442  	0.07341  	-0.08565  	-86.90004  	-2.00586  	399.86335  	390.08898  	-20019.86814  	-4221.36053  	0.00617  	0.00003  	0.00423  	0.00490  	0.01006  	0.00000  	0.00000  
86.94442  	33.11026  	5.12767  	5.53210  	26.25830  	-1.18512  	0.04737  	1.32207  	1.35293  	-3.02442  	0.06923  	-0.08559  	-86.88643  	-2.00490  	399.30097  	390.19483  	-20020.18284  	-4221.30172  	0.00616  	0.00003  	0.00422  	0.00491  	0.01007  	0.00000  	0.00000  
87.94773  	33.11082  	5.12826  	5.53321  	26.25808  	-1.18512  	0.04768  	1.32246  	1.35225  	-3.02442  	0.07099  	-0.08570  	-86.89623  	-2.00746  	399.10059  	390.30929  	-20020.25662  	-4221.40387  	0.00616  	0.00003  	0.00423  	0.00492  	0.01007  	0.00000  	0.00000  
88.95008  	33.11057  	5.12824  	5.53205  	26.25776  	-1.18512  	0.04853  	1.32189  	1.35385  	-3.02442  	0.07103  	-0.08565  	-86.89716  	-2.00185  	399.57296  	390.14156  	-20020.13350  	-4221.33334  	0.00617  	0.00003  	0.00423  	0.00493  	0.01007  	0.00000  	0.00000  
89.95140  	33.11168  	5.12791  	5.53289  	26.25858  	-1.18512  	0.04737  	1.32302  	1.35134  	-3.02442  	0.07140  	-0.08568  	-86.90083  	-2.00762  	398.83408  	390.47338  	-20020.55439  	-4221.36361  	0.00616  	0.00003  	0.00423  	0.00491  	0.01007  	0.00000  	0.00000  
90.95472  	33.11147  	5.12767  	5.53263  	26.25858  	-1.18512  	0.04818  	1.32258  	1.35049  	-3.02442  	0.07052  	-0.08568  	-86.89829  	-2.00752  	398.58220  	390.34530  	-20020.50730  	-4221.33383  	0.00616  	0.00003  	0.00423  	0.00493  	0.01007  	0.00000  	0.00000  
91.95619  	33.11236  	5.12841  	5.53395  	26.25925  	-1.18512  	0.04640  	1.32241  	1.35191  	-3.02442  	0.07171  	-0.08565  	-86.90097  	-2.01042  	399.00228  	390.29441  	-20020.84696  	-4221.45801  	0.00616  	0.00003  	0.00423  	0.00489  	0.01007  	0.00000  	0.00000  
92.95649  	33.11385  	5.12911  	5.53433  	26.25998  	-1.18512  	0.04745  	1.32235  	1.35081  	-3.02442  	0.07105  	-0.08571  	-86.91053  	-2.00879  	398.67673  	390.27624  	-20021.33139  	-4221.52249  	0.00616  	0.00003  	0.00423  	0.00491  	0.01007  	0.00000  	0.00000  
93.95983  	33.11405  	5.12976  	5.53390  	26.26026  	-1.18512  	0.04831  	1.32313  	1.35024  	-3.02442  	0.07047  	-0.08574  	-86.90947  	-2.00350  	398.50722  	390.50606  	-20021.43656  	-4221.53581  	0.00616  	0.00003  	0.00423  	0.00493  	0.01007  	0.00000  	0.00000  
94.96315  	33.11495  	5.12946  	5.53340  	26.26037  	-1.18512  	0.04739  	1.32301  	1.34914  	-3.02442  	0.07238  	-0.08567  	-86.91954  	-2.00251  	398.18331  	390.47105  	-20021.65606  	-4221.48754  	0.00616  	0.00003  	0.00423  	0.00491  	0.01007  	0.00000  	0.00000  
95.96447  	33.11467  	5.12960  	5.53283  	26.25995  	-1.18512  	0.04736  	1.32227  	1.35241  	-3.02442  	0.07096  	-0.08567  	-86.92139  	-1.99894  	399.14853  	390.25465  	-20021.50381  	-4221.46174  	0.00616  	0.00003  	0.00423  	0.00491  	0.01007  	0.00000  	0.00000  
96.96779  	33.11542  	5.12890  	5.53420  	26.26099  	-1.18512  	0.04731  	1.32219  	1.34739  	-3.02442  	0.07118  	-0.08565  	-86.91769  	-2.00921  	397.66672  	390.22879  	-20021.89388  	-4221.50182  	0.00616  	0.00003  	0.00423  	0.00491  	0.01007  	0.00000  	0.00000  
97.97110  	33.11571  	5.12953  	5.53532  	26.26218  	-1.18512  	0.04759  	1.32209  	1.35402  	-3.02442  	0.07234  	-0.08571  	-86.90627  	-2.01167  	399.62538  	390.19974  	-20022.21616  	-4221.60754  	0.00617  	0.00003  	0.00423  	0.00491  	0.01007  	0.00000  	0.00000  
98.97143  	33.11557  	5.13010  	5.53554  	26.26202  	-1.18512  	0.04777  	1.32232  	1.35104  	-3.02442  	0.07252  	-0.08573  	-86.90639  	-2.00990  	398.74573  	390.26730  	-20022.15113  	-4221.65491  	0.00616  	0.00003  	0.00423  	0.00492  	0.01007  	0.00000  	0.00000  
99.97472  	33.11606  	5.12961  	5.53475  	26.26278  	-1.18512  	0.04658  	1.32077  	1.34829  	-3.02442  	0.07050  	-0.08566  	-86.90305  	-2.00843  	397.93300  	389.81123  	-20022.42119  	-4221.57800  	0.00616  	0.00003  	0.00423  	0.00489  	0.01006  	0.00000  	0.00000  
100.97706  	33.11607  	5.12941  	5.53515  	26.26247  	-1.18512  	0.04531  	1.32043  	1.35388  	-3.02442  	0.07214  	-0.08566  	-86.90705  	-2.01143  	399.58174  	389.70984  	-20022.35718  	-4221.58968  	0.00617  	0.00003  	0.00423  	0.00487  	0.01006  	0.00000  	0.00000  
