10/28/2024 15:06:44Time	T_hot_in(C)	T_cold_in(C)	T_cold_out(C)	T_hot_out(C)	mdot_cold(kg/s)	ASFASIFUAS(kg/s)	Diferencial_cold(bar)	Diferencial_hot(bar)	mdot_hot(kg/s)	ABS_cold(bar)	ABS_hot(bar)	q_cold(kW)	q_hot(kW)	ASFASYFY	Tau_cold_haste	Re_hot	Re_cold	U_global	PSIG_cold(bar)	R_fouling	PSIG_hot(bar)	PSID_hot(bar)	m_dot_hot	PSID_cold(bar)	m_dot_cold
1.75337  	0.00000  	0.00000  	0.00000  	0.00000  	-1.18512  	-0.20833  	-0.86278  	-2.50000  	-3.02442  	-1.25000  	-0.08628  	-0.00000  	-0.00000  	-737.84722  	-254.63905  	-9234.48090  	-3618.55272  	0.00000  	0.00000  	0.00000  	0.00000  	0.00000  	0.00000  	0.00000  
2.75393  	33.32158  	5.09283  	5.31586  	24.64619  	-1.18512  	0.01415  	0.09692  	0.08151  	-3.02442  	0.01501  	-0.08575  	-110.01459  	-1.10563  	24.05614  	28.60460  	-19715.62769  	-4206.22966  	0.00413  	0.00002  	0.00405  	0.00427  	0.00442  	0.00000  	0.00000  
3.75600  	33.32233  	5.09244  	5.31524  	24.65513  	-1.18512  	0.01543  	0.09678  	0.08200  	-3.02442  	0.01368  	-0.08578  	-109.91065  	-1.10452  	24.20224  	28.56269  	-19717.72735  	-4206.16929  	0.00413  	0.00002  	0.00404  	0.00430  	0.00442  	0.00000  	0.00000  
4.75711  	33.32338  	5.09279  	5.31492  	24.66648  	-1.18512  	0.01604  	0.09475  	0.08192  	-3.02442  	0.01472  	-0.08575  	-109.78013  	-1.10119  	24.17819  	27.96446  	-19720.41786  	-4206.17126  	0.00413  	0.00002  	0.00405  	0.00431  	0.00441  	0.00000  	0.00000  
5.75706  	33.32576  	5.09240  	5.31616  	24.67840  	-1.18512  	0.01749  	0.09484  	0.08089  	-3.02442  	0.01506  	-0.08580  	-109.65900  	-1.10930  	23.87451  	27.99114  	-19723.52010  	-4206.22185  	0.00413  	0.00002  	0.00405  	0.00434  	0.00441  	0.00000  	0.00000  
6.75765  	33.32718  	5.09176  	5.31758  	24.69144  	-1.18512  	0.01706  	0.09484  	0.08134  	-3.02442  	0.01501  	-0.08577  	-109.51167  	-1.11948  	24.00747  	27.99120  	-19726.65630  	-4206.26915  	0.00413  	0.00002  	0.00405  	0.00433  	0.00441  	0.00000  	0.00000  
7.75848  	33.32871  	5.09279  	5.31730  	24.70436  	-1.18512  	0.01585  	0.09406  	0.08034  	-3.02442  	0.01435  	-0.08581  	-109.36717  	-1.11301  	23.71156  	27.76188  	-19729.79055  	-4206.31384  	0.00413  	0.00002  	0.00405  	0.00430  	0.00441  	0.00000  	0.00000  
8.75826  	33.33039  	5.09295  	5.31791  	24.71877  	-1.18512  	0.01676  	0.09151  	0.07883  	-3.02442  	0.01298  	-0.08574  	-109.20584  	-1.11522  	23.26652  	27.00840  	-19733.28200  	-4206.36030  	0.00413  	0.00003  	0.00404  	0.00432  	0.00440  	0.00000  	0.00000  
9.75957  	33.33218  	5.09336  	5.31776  	24.72837  	-1.18512  	0.01505  	0.09208  	0.08203  	-3.02442  	0.01607  	-0.08571  	-109.10678  	-1.11244  	24.20934  	27.17702  	-19735.75207  	-4206.37556  	0.00413  	0.00003  	0.00405  	0.00429  	0.00440  	0.00000  	0.00000  
10.76030  	33.33329  	5.09426  	5.31845  	24.73791  	-1.18512  	0.01537  	0.09261  	0.07871  	-3.02442  	0.01667  	-0.08576  	-108.99973  	-1.11143  	23.23066  	27.33173  	-19738.06401  	-4206.47075  	0.00413  	0.00002  	0.00405  	0.00430  	0.00440  	0.00000  	0.00000  
11.75982  	33.33476  	5.09463  	5.31880  	24.74711  	-1.18512  	0.01553  	0.09139  	0.07999  	-3.02442  	0.01629  	-0.08574  	-108.90179  	-1.11129  	23.60883  	26.97370  	-19740.37768  	-4206.51416  	0.00413  	0.00003  	0.00405  	0.00430  	0.00440  	0.00000  	0.00000  
12.76024  	33.33601  	5.09433  	5.31921  	24.75513  	-1.18512  	0.01507  	0.09089  	0.07616  	-3.02442  	0.01331  	-0.08574  	-108.81581  	-1.11480  	22.47910  	26.82399  	-19742.39064  	-4206.52024  	0.00412  	0.00003  	0.00404  	0.00429  	0.00439  	0.00000  	0.00000  
13.75959  	33.33653  	5.09409  	5.31840  	24.76002  	-1.18512  	0.01504  	0.08994  	0.07574  	-3.02442  	0.01336  	-0.08577  	-108.76050  	-1.11199  	22.35511  	26.54543  	-19743.56303  	-4206.45774  	0.00412  	0.00002  	0.00404  	0.00429  	0.00439  	0.00000  	0.00000  
14.76052  	33.33848  	5.09406  	5.31820  	24.76368  	-1.18512  	0.01489  	0.08792  	0.07857  	-3.02442  	0.01568  	-0.08567  	-108.73872  	-1.11117  	23.18798  	25.94848  	-19744.78116  	-4206.44347  	0.00413  	0.00003  	0.00405  	0.00429  	0.00438  	0.00000  	0.00000  
15.76151  	33.33934  	5.09384  	5.31722  	24.76603  	-1.18512  	0.01598  	0.08874  	0.07587  	-3.02442  	0.01604  	-0.08581  	-108.71998  	-1.10738  	22.39085  	26.18990  	-19745.47713  	-4206.37172  	0.00412  	0.00002  	0.00405  	0.00431  	0.00438  	0.00000  	0.00000  
16.76300  	33.34096  	5.09419  	5.31710  	24.76726  	-1.18512  	0.01605  	0.08868  	0.07179  	-3.02442  	0.01673  	-0.08580  	-108.72492  	-1.10507  	21.18720  	26.17189  	-19746.09554  	-4206.38565  	0.00411  	0.00002  	0.00405  	0.00431  	0.00438  	0.00000  	0.00000  
17.76328  	33.34195  	5.09447  	5.31871  	24.76799  	-1.18512  	0.01488  	0.08775  	0.07337  	-3.02442  	0.01248  	-0.08575  	-108.72817  	-1.11168  	21.65444  	25.89959  	-19746.46865  	-4206.49899  	0.00412  	0.00002  	0.00404  	0.00429  	0.00438  	0.00000  	0.00000  
18.76260  	33.34299  	5.09493  	5.31891  	24.76670  	-1.18512  	0.01472  	0.08725  	0.07469  	-3.02442  	0.01559  	-0.08568  	-108.75778  	-1.11036  	22.04271  	25.75077  	-19746.41495  	-4206.53813  	0.00412  	0.00003  	0.00405  	0.00428  	0.00438  	0.00000  	0.00000  
19.76378  	33.34389  	5.09450  	5.31854  	24.76368  	-1.18512  	0.01406  	0.08729  	0.07569  	-3.02442  	0.01681  	-0.08578  	-108.80748  	-1.11068  	22.33764  	25.76349  	-19745.95558  	-4206.49036  	0.00412  	0.00002  	0.00405  	0.00427  	0.00438  	0.00000  	0.00000  
20.76387  	33.34499  	5.09440  	5.31765  	24.75950  	-1.18512  	0.01562  	0.08642  	0.07053  	-3.02442  	0.01596  	-0.08577  	-108.87445  	-1.10673  	20.81569  	25.50640  	-19745.28737  	-4206.43112  	0.00411  	0.00002  	0.00405  	0.00430  	0.00437  	0.00000  	0.00000  
21.76496  	33.34543  	5.09408  	5.31710  	24.75572  	-1.18512  	0.01510  	0.08669  	0.06565  	-3.02442  	0.01493  	-0.08578  	-108.92788  	-1.10563  	19.37508  	25.58591  	-19744.56278  	-4206.37924  	0.00411  	0.00002  	0.00405  	0.00429  	0.00437  	0.00000  	0.00000  
22.76502  	33.34685  	5.09493  	5.31703  	24.75013  	-1.18512  	0.01450  	0.08406  	0.07295  	-3.02442  	0.01424  	-0.08577  	-109.01679  	-1.10104  	21.52956  	24.81082  	-19743.65741  	-4206.42594  	0.00412  	0.00002  	0.00405  	0.00428  	0.00436  	0.00000  	0.00000  
23.76596  	33.34613  	5.09590  	5.31741  	24.74340  	-1.18512  	0.01448  	0.08349  	0.07057  	-3.02442  	0.01397  	-0.08575  	-109.09295  	-1.09810  	20.82775  	24.64209  	-19742.04004  	-4206.50688  	0.00411  	0.00002  	0.00404  	0.00428  	0.00436  	0.00000  	0.00000  
24.76616  	33.34672  	5.09531  	5.31791  	24.73522  	-1.18512  	0.01546  	0.08308  	0.06860  	-3.02442  	0.01675  	-0.08576  	-109.20421  	-1.10356  	20.24627  	24.52027  	-19740.39215  	-4206.50109  	0.00411  	0.00002  	0.00405  	0.00430  	0.00436  	0.00000  	0.00000  
25.76624  	33.34768  	5.09590  	5.31841  	24.72782  	-1.18512  	0.01486  	0.08340  	0.06860  	-3.02442  	0.01551  	-0.08577  	-109.31022  	-1.10308  	20.24716  	24.61547  	-19738.99814  	-4206.56705  	0.00411  	0.00002  	0.00405  	0.00429  	0.00436  	0.00000  	0.00000  
26.76596  	33.34797  	5.09558  	5.31850  	24.71972  	-1.18512  	0.01441  	0.08311  	0.06624  	-3.02442  	0.01407  	-0.08579  	-109.41663  	-1.10508  	19.55014  	24.52775  	-19737.30295  	-4206.55271  	0.00411  	0.00002  	0.00405  	0.00428  	0.00436  	0.00000  	0.00000  
27.76638  	33.34861  	5.09687  	5.31717  	24.70932  	-1.18512  	0.01475  	0.08119  	0.06985  	-3.02442  	0.01469  	-0.08568  	-109.55662  	-1.09211  	20.61676  	23.96317  	-19735.18504  	-4206.55057  	0.00411  	0.00003  	0.00405  	0.00428  	0.00435  	0.00000  	0.00000  
28.76623  	33.34865  	5.09671  	5.31806  	24.69830  	-1.18512  	0.01377  	0.08160  	0.07039  	-3.02442  	0.01432  	-0.08580  	-109.69678  	-1.09736  	20.77588  	24.08228  	-19732.80218  	-4206.59433  	0.00411  	0.00002  	0.00405  	0.00426  	0.00435  	0.00000  	0.00000  
29.76702  	33.34876  	5.09726  	5.31842  	24.68733  	-1.18512  	0.01348  	0.08354  	0.06941  	-3.02442  	0.01592  	-0.08574  	-109.83719  	-1.09639  	20.48504  	24.65541  	-19730.44634  	-4206.64904  	0.00411  	0.00003  	0.00405  	0.00426  	0.00436  	0.00000  	0.00000  
30.76701  	33.34869  	5.09633  	5.31803  	24.67793  	-1.18512  	0.01398  	0.08607  	0.07319  	-3.02442  	0.01665  	-0.08580  	-109.95559  	-1.09906  	21.60265  	25.40400  	-19728.39151  	-4206.57015  	0.00412  	0.00002  	0.00405  	0.00427  	0.00437  	0.00000  	0.00000  
31.76755  	33.34857  	5.09673  	5.31842  	24.66800  	-1.18512  	0.01455  	0.08700  	0.07064  	-3.02442  	0.01502  	-0.08585  	-110.08002  	-1.09896  	20.84740  	25.67576  	-19726.21258  	-4206.61693  	0.00411  	0.00002  	0.00405  	0.00428  	0.00438  	0.00000  	0.00000  
32.76958  	33.34921  	5.09737  	5.31767  	24.66064  	-1.18512  	0.01425  	0.08609  	0.07109  	-3.02442  	0.01371  	-0.08572  	-110.18144  	-1.09213  	20.98174  	25.40747  	-19724.75520  	-4206.61081  	0.00411  	0.00003  	0.00404  	0.00427  	0.00437  	0.00000  	0.00000  
33.77098  	33.35080  	5.09675  	5.31730  	24.65517  	-1.18512  	0.01416  	0.08773  	0.07617  	-3.02442  	0.01652  	-0.08573  	-110.27096  	-1.09337  	22.48138  	25.89197  	-19723.91207  	-4206.55145  	0.00412  	0.00003  	0.00405  	0.00427  	0.00438  	0.00000  	0.00000  
34.77081  	33.35130  	5.09630  	5.31832  	24.65117  	-1.18512  	0.01547  	0.08892  	0.07665  	-3.02442  	0.01568  	-0.08574  	-110.32811  	-1.10065  	22.62367  	26.24375  	-19723.15200  	-4206.58481  	0.00412  	0.00003  	0.00405  	0.00430  	0.00438  	0.00000  	0.00000  
35.77209  	33.35231  	5.09658  	5.31852  	24.64900  	-1.18512  	0.01517  	0.09057  	0.07632  	-3.02442  	0.01535  	-0.08579  	-110.36840  	-1.10023  	22.52431  	26.72945  	-19722.90025  	-4206.61354  	0.00412  	0.00002  	0.00405  	0.00429  	0.00439  	0.00000  	0.00000  
36.77268  	33.35342  	5.09615  	5.31897  	24.65036  	-1.18512  	0.01538  	0.09059  	0.07610  	-3.02442  	0.01562  	-0.08578  	-110.36523  	-1.10463  	22.46065  	26.73759  	-19723.43829  	-4206.61538  	0.00412  	0.00002  	0.00405  	0.00430  	0.00439  	0.00000  	0.00000  
37.77297  	33.35331  	5.09677  	5.31967  	24.65420  	-1.18512  	0.01464  	0.09299  	0.08098  	-3.02442  	0.01454  	-0.08574  	-110.31515  	-1.10499  	23.89917  	27.44425  	-19724.24614  	-4206.69452  	0.00413  	0.00003  	0.00405  	0.00428  	0.00440  	0.00000  	0.00000  
38.77394  	33.35362  	5.09726  	5.32004  	24.65864  	-1.18512  	0.01555  	0.09399  	0.08365  	-3.02442  	0.01581  	-0.08576  	-110.26275  	-1.10442  	24.68774  	27.73939  	-19725.27857  	-4206.74540  	0.00413  	0.00002  	0.00405  	0.00430  	0.00441  	0.00000  	0.00000  
39.77393  	33.35592  	5.09836  	5.32120  	24.66639  	-1.18512  	0.01702  	0.09544  	0.08403  	-3.02442  	0.01615  	-0.08577  	-110.19358  	-1.10473  	24.80070  	28.16767  	-19727.45817  	-4206.88098  	0.00413  	0.00002  	0.00405  	0.00433  	0.00441  	0.00000  	0.00000  
40.77361  	33.35769  	5.09759  	5.32120  	24.67728  	-1.18512  	0.01801  	0.09714  	0.08226  	-3.02442  	0.01336  	-0.08576  	-110.07782  	-1.10856  	24.27797  	28.66958  	-19730.20354  	-4206.83525  	0.00413  	0.00002  	0.00404  	0.00435  	0.00442  	0.00000  	0.00000  
41.77394  	33.35883  	5.09773  	5.32209  	24.68842  	-1.18512  	0.01613  	0.09672  	0.08184  	-3.02442  	0.01522  	-0.08576  	-109.95110  	-1.11223  	24.15492  	28.54636  	-19732.86855  	-4206.89688  	0.00413  	0.00002  	0.00405  	0.00431  	0.00442  	0.00000  	0.00000  
42.77393  	33.36084  	5.09742  	5.32252  	24.70085  	-1.18512  	0.01548  	0.09618  	0.08946  	-3.02442  	0.01391  	-0.08576  	-109.81889  	-1.11592  	26.40256  	28.38744  	-19735.99970  	-4206.90356  	0.00414  	0.00002  	0.00404  	0.00430  	0.00442  	0.00000  	0.00000  
43.77385  	33.36187  	5.09826  	5.32284  	24.71648  	-1.18512  	0.01633  	0.09493  	0.08364  	-3.02442  	0.01461  	-0.08573  	-109.63376  	-1.11332  	24.68652  	28.01761  	-19739.61581  	-4206.97359  	0.00413  	0.00003  	0.00405  	0.00431  	0.00441  	0.00000  	0.00000  
44.77488  	33.36367  	5.09866  	5.32354  	24.73195  	-1.18512  	0.01627  	0.09536  	0.08255  	-3.02442  	0.01579  	-0.08577  	-109.46033  	-1.11480  	24.36498  	28.14416  	-19743.36276  	-4207.03932  	0.00413  	0.00002  	0.00405  	0.00431  	0.00441  	0.00000  	0.00000  
45.77607  	33.36507  	5.09863  	5.32434  	24.74505  	-1.18512  	0.01593  	0.09507  	0.08016  	-3.02442  	0.01579  	-0.08583  	-109.31208  	-1.11894  	23.65944  	28.05868  	-19746.50893  	-4207.08546  	0.00413  	0.00002  	0.00405  	0.00431  	0.00441  	0.00000  	0.00000  
46.77708  	33.36595  	5.09842  	5.32395  	24.75746  	-1.18512  	0.01425  	0.09259  	0.08358  	-3.02442  	0.01589  	-0.08572  	-109.16574  	-1.11802  	24.66721  	27.32758  	-19749.39222  	-4207.04952  	0.00413  	0.00003  	0.00405  	0.00427  	0.00440  	0.00000  	0.00000  
47.77661  	33.36706  	5.09797  	5.32335  	24.76948  	-1.18512  	0.01625  	0.09204  	0.07883  	-3.02442  	0.01493  	-0.08574  	-109.02746  	-1.11729  	23.26677  	27.16336  	-19752.24193  	-4206.98709  	0.00413  	0.00002  	0.00405  	0.00431  	0.00440  	0.00000  	0.00000  
48.77779  	33.36785  	5.09885  	5.32417  	24.78015  	-1.18512  	0.01731  	0.09189  	0.07719  	-3.02442  	0.01564  	-0.08577  	-108.90223  	-1.11699  	22.78062  	27.12175  	-19754.72831  	-4207.08918  	0.00412  	0.00002  	0.00405  	0.00433  	0.00440  	0.00000  	0.00000  
49.77791  	33.36955  	5.09873  	5.32388  	24.78909  	-1.18512  	0.01509  	0.09242  	0.07657  	-3.02442  	0.01452  	-0.08577  	-108.81032  	-1.11615  	22.59916  	27.27779  	-19757.03726  	-4207.06428  	0.00412  	0.00002  	0.00405  	0.00429  	0.00440  	0.00000  	0.00000  
50.77805  	33.37058  	5.09792  	5.32286  	24.79549  	-1.18512  	0.01515  	0.09023  	0.07819  	-3.02442  	0.01392  	-0.08568  	-108.74223  	-1.11510  	23.07698  	26.63104  	-19758.65045  	-4206.95435  	0.00413  	0.00003  	0.00404  	0.00429  	0.00439  	0.00000  	0.00000  
51.77855  	33.37197  	5.09883  	5.32298  	24.80201  	-1.18512  	0.01468  	0.08841  	0.08138  	-3.02442  	0.01518  	-0.08565  	-108.67721  	-1.11119  	24.01711  	26.09310  	-19760.36845  	-4207.01650  	0.00413  	0.00003  	0.00405  	0.00428  	0.00438  	0.00000  	0.00000  
52.78023  	33.37283  	5.09892  	5.32328  	24.80607  	-1.18512  	0.01588  	0.08856  	0.07172  	-3.02442  	0.01517  	-0.08575  	-108.63655  	-1.11224  	21.16883  	26.13678  	-19761.43607  	-4207.03943  	0.00411  	0.00002  	0.00405  	0.00430  	0.00438  	0.00000  	0.00000  
53.78327  	33.37448  	5.09856  	5.32335  	24.80796  	-1.18512  	0.01508  	0.09039  	0.07468  	-3.02442  	0.01485  	-0.08581  	-108.63360  	-1.11436  	22.04079  	26.67903  	-19762.20384  	-4207.02191  	0.00412  	0.00002  	0.00405  	0.00429  	0.00439  	0.00000  	0.00000  
54.78379  	33.37482  	5.09948  	5.32266  	24.80922  	-1.18512  	0.01441  	0.08867  	0.07051  	-3.02442  	0.01549  	-0.08576  	-108.62194  	-1.10642  	20.80935  	26.16880  	-19762.55184  	-4207.03615  	0.00411  	0.00002  	0.00405  	0.00428  	0.00438  	0.00000  	0.00000  
55.78506  	33.37631  	5.09957  	5.32257  	24.80842  	-1.18512  	0.01415  	0.08691  	0.07447  	-3.02442  	0.01220  	-0.08572  	-108.65100  	-1.10547  	21.97802  	25.64982  	-19762.70054  	-4207.03595  	0.00412  	0.00003  	0.00404  	0.00427  	0.00438  	0.00000  	0.00000  
56.78711  	33.37741  	5.09954  	5.32400  	24.80661  	-1.18512  	0.01433  	0.08596  	0.07755  	-3.02442  	0.01475  	-0.08569  	-108.68780  	-1.11276  	22.88664  	25.36888  	-19762.54577  	-4207.11954  	0.00412  	0.00003  	0.00405  	0.00428  	0.00437  	0.00000  	0.00000  
57.78728  	33.37780  	5.09993  	5.32358  	24.80438  	-1.18512  	0.01466  	0.08680  	0.07406  	-3.02442  	0.01684  	-0.08577  	-108.72098  	-1.10869  	21.85845  	25.61895  	-19762.14800  	-4207.11829  	0.00412  	0.00002  	0.00405  	0.00428  	0.00438  	0.00000  	0.00000  
58.78835  	33.37807  	5.10012  	5.32251  	24.80076  	-1.18512  	0.01503  	0.08583  	0.07068  	-3.02442  	0.01596  	-0.08579  	-108.77037  	-1.10247  	20.86163  	25.33045  	-19761.42110  	-4207.06504  	0.00411  	0.00002  	0.00405  	0.00429  	0.00437  	0.00000  	0.00000  
59.78902  	33.37901  	5.10021  	5.32247  	24.79552  	-1.18512  	0.01448  	0.08536  	0.07097  	-3.02442  	0.01446  	-0.08571  	-108.84870  	-1.10184  	20.94594  	25.19303  	-19760.48735  	-4207.06825  	0.00411  	0.00003  	0.00405  	0.00428  	0.00437  	0.00000  	0.00000  
60.79025  	33.37960  	5.10049  	5.32281  	24.78919  	-1.18512  	0.01336  	0.08503  	0.07664  	-3.02442  	0.01416  	-0.08568  	-108.93647  	-1.10215  	22.61975  	25.09479  	-19759.24158  	-4207.10537  	0.00412  	0.00003  	0.00405  	0.00426  	0.00437  	0.00000  	0.00000  
61.79102  	33.38018  	5.10047  	5.32243  	24.78234  	-1.18512  	0.01425  	0.08472  	0.07353  	-3.02442  	0.01651  	-0.08568  	-109.03079  	-1.10033  	21.70113  	25.00278  	-19757.87953  	-4207.08118  	0.00412  	0.00003  	0.00405  	0.00427  	0.00437  	0.00000  	0.00000  
62.79082  	33.37959  	5.10099  	5.32237  	24.77537  	-1.18512  	0.01420  	0.08442  	0.06882  	-3.02442  	0.01625  	-0.08575  	-109.11158  	-1.09745  	20.31140  	24.91688  	-19756.23913  	-4207.10880  	0.00411  	0.00002  	0.00405  	0.00427  	0.00436  	0.00000  	0.00000  
63.79103  	33.38005  	5.10088  	5.32204  	24.76702  	-1.18512  	0.01466  	0.08329  	0.06374  	-3.02442  	0.01369  	-0.08581  	-109.22328  	-1.09639  	18.81253  	24.58131  	-19754.52633  	-4207.08318  	0.00410  	0.00002  	0.00404  	0.00428  	0.00436  	0.00000  	0.00000  
64.79123  	33.38066  	5.10041  	5.32229  	24.75761  	-1.18512  	0.01310  	0.08240  	0.06974  	-3.02442  	0.01455  	-0.08574  	-109.35041  	-1.09995  	20.58171  	24.32025  	-19752.61853  	-4207.06942  	0.00411  	0.00002  	0.00405  	0.00425  	0.00435  	0.00000  	0.00000  
65.79238  	33.38095  	5.10123  	5.32204  	24.74821  	-1.18512  	0.01401  	0.08288  	0.07287  	-3.02442  	0.01630  	-0.08574  	-109.47334  	-1.09465  	21.50603  	24.46215  	-19750.64164  	-4207.10421  	0.00412  	0.00003  	0.00405  	0.00427  	0.00436  	0.00000  	0.00000  
66.79428  	33.38179  	5.10142  	5.32233  	24.73784  	-1.18512  	0.01407  	0.08295  	0.06961  	-3.02442  	0.01423  	-0.08577  	-109.61540  	-1.09518  	20.54528  	24.48274  	-19748.57140  	-4207.13261  	0.00411  	0.00002  	0.00405  	0.00427  	0.00436  	0.00000  	0.00000  
67.79496  	33.38120  	5.10137  	5.32191  	24.72701  	-1.18512  	0.01461  	0.08536  	0.06879  	-3.02442  	0.01625  	-0.08579  	-109.74534  	-1.09329  	20.30142  	25.19359  	-19746.09428  	-4207.10423  	0.00411  	0.00002  	0.00405  	0.00428  	0.00437  	0.00000  	0.00000  
68.79602  	33.38197  	5.10166  	5.32189  	24.71710  	-1.18512  	0.01443  	0.08660  	0.07293  	-3.02442  	0.01454  	-0.08573  	-109.88082  	-1.09175  	21.52520  	25.55806  	-19744.11106  	-4207.12073  	0.00412  	0.00003  	0.00405  	0.00428  	0.00437  	0.00000  	0.00000  
69.79591  	33.38218  	5.10169  	5.32197  	24.70931  	-1.18512  	0.01396  	0.08767  	0.07795  	-3.02442  	0.01355  	-0.08576  	-109.98224  	-1.09204  	23.00578  	25.87481  	-19742.46633  	-4207.12712  	0.00412  	0.00002  	0.00404  	0.00427  	0.00438  	0.00000  	0.00000  
70.79596  	33.38295  	5.10130  	5.32279  	24.70186  	-1.18512  	0.01560  	0.08880  	0.07890  	-3.02442  	0.01621  	-0.08579  	-110.08642  	-1.09806  	23.28718  	26.20901  	-19741.01663  	-4207.15294  	0.00413  	0.00002  	0.00405  	0.00430  	0.00438  	0.00000  	0.00000  
71.79601  	33.38354  	5.10113  	5.32240  	24.69768  	-1.18512  	0.01610  	0.09062  	0.07414  	-3.02442  	0.01444  	-0.08582  	-110.14686  	-1.09692  	21.88163  	26.74501  	-19740.23807  	-4207.11883  	0.00412  	0.00002  	0.00405  	0.00431  	0.00439  	0.00000  	0.00000  
72.79595  	33.38366  	5.10147  	5.32274  	24.69560  	-1.18512  	0.01552  	0.09252  	0.07628  	-3.02442  	0.01459  	-0.08577  	-110.17483  	-1.09697  	22.51414  	27.30543  	-19739.81403  	-4207.16018  	0.00412  	0.00002  	0.00405  	0.00430  	0.00440  	0.00000  	0.00000  
73.79609  	33.38620  	5.10177  	5.32250  	24.69729  	-1.18512  	0.01512  	0.09235  	0.07930  	-3.02442  	0.01457  	-0.08573  	-110.18551  	-1.09428  	23.40400  	27.25646  	-19740.72917  	-4207.16366  	0.00413  	0.00003  	0.00405  	0.00429  	0.00440  	0.00000  	0.00000  
74.79615  	33.38625  	5.10165  	5.32279  	24.70047  	-1.18512  	0.01612  	0.09314  	0.08091  	-3.02442  	0.01427  	-0.08571  	-110.14590  	-1.09632  	23.88020  	27.48939  	-19741.43085  	-4207.17396  	0.00413  	0.00003  	0.00405  	0.00431  	0.00440  	0.00000  	0.00000  
75.79607  	33.38736  	5.10148  	5.32345  	24.70541  	-1.18512  	0.01630  	0.09382  	0.08474  	-3.02442  	0.01690  	-0.08574  	-110.09730  	-1.10041  	25.01034  	27.68879  	-19742.74271  	-4207.20343  	0.00414  	0.00003  	0.00405  	0.00431  	0.00441  	0.00000  	0.00000  
76.79700  	33.38891  	5.10158  	5.32355  	24.71430  	-1.18512  	0.01570  	0.09689  	0.08438  	-3.02442  	0.01599  	-0.08578  	-110.00412  	-1.10043  	24.90482  	28.59520  	-19745.00937  	-4207.21547  	0.00414  	0.00002  	0.00405  	0.00430  	0.00442  	0.00000  	0.00000  
77.79720  	33.39043  	5.10155  	5.32373  	24.72344  	-1.18512  	0.01636  	0.09716  	0.08369  	-3.02442  	0.01548  	-0.08573  	-109.90768  	-1.10144  	24.69902  	28.67529  	-19747.32229  	-4207.22405  	0.00413  	0.00003  	0.00405  	0.00431  	0.00442  	0.00000  	0.00000  
78.79705  	33.39141  	5.10181  	5.32400  	24.73516  	-1.18512  	0.01523  	0.09642  	0.08361  	-3.02442  	0.01451  	-0.08577  	-109.77140  	-1.10148  	24.67654  	28.45645  	-19750.07941  	-4207.25592  	0.00413  	0.00002  	0.00405  	0.00429  	0.00442  	0.00000  	0.00000  
79.79827  	33.39177  	5.10159  	5.32553  	24.74773  	-1.18512  	0.01607  	0.09624  	0.08577  	-3.02442  	0.01485  	-0.08574  	-109.61656  	-1.11011  	25.31548  	28.40430  	-19752.88517  	-4207.33458  	0.00414  	0.00002  	0.00405  	0.00431  	0.00442  	0.00000  	0.00000  
80.79812  	33.39350  	5.10308  	5.32600  	24.76404  	-1.18512  	0.01665  	0.09598  	0.08240  	-3.02442  	0.01758  	-0.08574  	-109.43167  	-1.10510  	24.31925  	28.32800  	-19756.79949  	-4207.45195  	0.00413  	0.00003  	0.00406  	0.00432  	0.00442  	0.00000  	0.00000  
81.79787  	33.39528  	5.10253  	5.32594  	24.77779  	-1.18512  	0.01555  	0.09471  	0.07762  	-3.02442  	0.01463  	-0.08576  	-109.27982  	-1.10755  	22.90944  	27.95180  	-19760.17061  	-4207.41556  	0.00412  	0.00002  	0.00405  	0.00430  	0.00441  	0.00000  	0.00000  
82.79845  	33.39653  	5.10252  	5.32652  	24.79013  	-1.18512  	0.01703  	0.09325  	0.07920  	-3.02442  	0.01451  	-0.08578  	-109.13917  	-1.11049  	23.37597  	27.52163  	-19763.12054  	-4207.44989  	0.00413  	0.00002  	0.00405  	0.00433  	0.00440  	0.00000  	0.00000  
83.79827  	33.39728  	5.10310  	5.32665  	24.80242  	-1.18512  	0.01557  	0.09211  	0.08118  	-3.02442  	0.01305  	-0.08571  	-108.99282  	-1.10822  	23.95982  	27.18482  	-19765.95014  	-4207.49190  	0.00413  	0.00003  	0.00404  	0.00430  	0.00440  	0.00000  	0.00000  
84.79919  	33.39903  	5.10280  	5.32689  	24.81280  	-1.18512  	0.01597  	0.09184  	0.07851  	-3.02442  	0.01881  	-0.08574  	-108.88334  	-1.11094  	23.17262  	27.10514  	-19768.58229  	-4207.48858  	0.00413  	0.00003  	0.00406  	0.00431  	0.00440  	0.00000  	0.00000  
85.79998  	33.39953  	5.10353  	5.32671  	24.82163  	-1.18512  	0.01696  	0.09083  	0.07581  	-3.02442  	0.01530  	-0.08574  	-108.77772  	-1.10642  	22.37327  	26.80736  	-19770.60824  	-4207.52186  	0.00412  	0.00002  	0.00405  	0.00433  	0.00439  	0.00000  	0.00000  
86.79999  	33.40140  	5.10275  	5.32682  	24.82808  	-1.18512  	0.01515  	0.09112  	0.07584  	-3.02442  	0.01418  	-0.08582  	-108.71960  	-1.11080  	22.38231  	26.89192  	-19772.41458  	-4207.48137  	0.00412  	0.00002  	0.00405  	0.00429  	0.00439  	0.00000  	0.00000  
87.80058  	33.40118  	5.10386  	5.32679  	24.83367  	-1.18512  	0.01443  	0.09050  	0.07615  	-3.02442  	0.01539  	-0.08576  	-108.64584  	-1.10514  	22.47510  	26.71095  	-19773.58026  	-4207.54639  	0.00412  	0.00002  	0.00405  	0.00428  	0.00439  	0.00000  	0.00000  
88.80249  	33.40224  	5.10405  	5.32743  	24.83722  	-1.18512  	0.01448  	0.08870  	0.08100  	-3.02442  	0.01661  	-0.08573  	-108.61440  	-1.10738  	23.90528  	26.17840  	-19774.58014  	-4207.59622  	0.00413  	0.00003  	0.00405  	0.00428  	0.00438  	0.00000  	0.00000  
89.80200  	33.40383  	5.10329  	5.32748  	24.83941  	-1.18512  	0.01577  	0.08917  	0.07485  	-3.02442  	0.01555  	-0.08578  	-108.60674  	-1.11138  	22.09029  	26.31681  	-19775.40239  	-4207.55329  	0.00412  	0.00002  	0.00405  	0.00430  	0.00439  	0.00000  	0.00000  
90.80340  	33.40446  	5.10339  	5.32706  	24.84055  	-1.18512  	0.01523  	0.08859  	0.07541  	-3.02442  	0.01442  	-0.08580  	-108.60027  	-1.10879  	22.25579  	26.14526  	-19775.78699  	-4207.53418  	0.00412  	0.00002  	0.00405  	0.00429  	0.00438  	0.00000  	0.00000  
91.80514  	33.40480  	5.10330  	5.32813  	24.84043  	-1.18512  	0.01455  	0.08828  	0.07502  	-3.02442  	0.01579  	-0.08578  	-108.60606  	-1.11460  	22.14246  	26.05597  	-19775.83456  	-4207.59299  	0.00412  	0.00002  	0.00405  	0.00428  	0.00438  	0.00000  	0.00000  
92.80455  	33.40630  	5.10392  	5.32718  	24.83752  	-1.18512  	0.01370  	0.08696  	0.07833  	-3.02442  	0.01410  	-0.08574  	-108.66199  	-1.10681  	23.11809  	25.66479  	-19775.52769  	-4207.57305  	0.00413  	0.00003  	0.00405  	0.00426  	0.00438  	0.00000  	0.00000  
93.80503  	33.40677  	5.10405  	5.32632  	24.83468  	-1.18512  	0.01580  	0.08635  	0.07244  	-3.02442  	0.01570  	-0.08572  	-108.70410  	-1.10186  	21.38036  	25.48592  	-19775.01263  	-4207.52911  	0.00412  	0.00003  	0.00405  	0.00430  	0.00437  	0.00000  	0.00000  
94.80496  	33.40752  	5.10390  	5.32642  	24.83099  	-1.18512  	0.01578  	0.08639  	0.07358  	-3.02442  	0.01592  	-0.08579  	-108.76039  	-1.10314  	21.71520  	25.49705  	-19774.37437  	-4207.52617  	0.00412  	0.00002  	0.00405  	0.00430  	0.00437  	0.00000  	0.00000  
95.80602  	33.40803  	5.10487  	5.32646  	24.82510  	-1.18512  	0.01447  	0.08606  	0.07133  	-3.02442  	0.01383  	-0.08576  	-108.84144  	-1.09851  	21.05324  	25.39886  	-19773.20809  	-4207.58742  	0.00411  	0.00002  	0.00404  	0.00428  	0.00437  	0.00000  	0.00000  
96.80603  	33.40835  	5.10438  	5.32686  	24.81993  	-1.18512  	0.01437  	0.08409  	0.07097  	-3.02442  	0.01359  	-0.08570  	-108.91115  	-1.10288  	20.94501  	24.81778  	-19772.15411  	-4207.58166  	0.00411  	0.00003  	0.00404  	0.00428  	0.00436  	0.00000  	0.00000  
97.80596  	33.40967  	5.10459  	5.32709  	24.81210  	-1.18512  	0.01489  	0.08362  	0.07220  	-3.02442  	0.01522  	-0.08571  	-109.02712  	-1.10301  	21.30895  	24.68006  	-19770.74183  	-4207.60836  	0.00412  	0.00003  	0.00405  	0.00429  	0.00436  	0.00000  	0.00000  
98.80597  	33.40919  	5.10427  	5.32721  	24.80398  	-1.18512  	0.01486  	0.08415  	0.06966  	-3.02442  	0.01641  	-0.08576  	-109.12401  	-1.10520  	20.56037  	24.83500  	-19768.87497  	-4207.59551  	0.00411  	0.00002  	0.00405  	0.00429  	0.00436  	0.00000  	0.00000  
99.80662  	33.40940  	5.10522  	5.32716  	24.79535  	-1.18512  	0.01426  	0.08428  	0.06849  	-3.02442  	0.01652  	-0.08580  	-109.23600  	-1.10026  	20.21342  	24.87475  	-19767.04602  	-4207.65002  	0.00411  	0.00002  	0.00405  	0.00427  	0.00436  	0.00000  	0.00000  
100.80707  	33.40988  	5.10510  	5.32678  	24.78641  	-1.18512  	0.01445  	0.08340  	0.06793  	-3.02442  	0.01513  	-0.08576  	-109.35551  	-1.09893  	20.04809  	24.61407  	-19765.21048  	-4207.61977  	0.00411  	0.00002  	0.00405  	0.00428  	0.00436  	0.00000  	0.00000  
101.80801  	33.40991  	5.10473  	5.32570  	24.77659  	-1.18512  	0.01443  	0.08330  	0.06945  	-3.02442  	0.01490  	-0.08567  	-109.48048  	-1.09544  	20.49687  	24.58650  	-19763.08319  	-4207.53335  	0.00411  	0.00003  	0.00405  	0.00428  	0.00436  	0.00000  	0.00000  
102.80772  	33.41094  	5.10538  	5.32603  	24.76630  	-1.18512  	0.01430  	0.08491  	0.07186  	-3.02442  	0.01640  	-0.08572  	-109.62397  	-1.09383  	21.20937  	25.05910  	-19761.07367  	-4207.59192  	0.00411  	0.00003  	0.00405  	0.00427  	0.00437  	0.00000  	0.00000  
103.80831  	33.41002  	5.10456  	5.32535  	24.75647  	-1.18512  	0.01446  	0.08710  	0.07080  	-3.02442  	0.01669  	-0.08579  	-109.73697  	-1.09457  	20.89517  	25.70569  	-19758.74101  	-4207.50193  	0.00411  	0.00002  	0.00405  	0.00428  	0.00438  	0.00000  	0.00000  
104.80911  	33.41132  	5.10590  	5.32599  	24.74762  	-1.18512  	0.01617  	0.08696  	0.07205  	-3.02442  	0.01335  	-0.08572  	-109.86576  	-1.09107  	21.26496  	25.66584  	-19757.10339  	-4207.62036  	0.00412  	0.00003  	0.00404  	0.00431  	0.00438  	0.00000  	0.00000  
105.80925  	33.41082  	5.10642  	5.32617  	24.74054  	-1.18512  	0.01474  	0.08817  	0.07434  	-3.02442  	0.01512  	-0.08575  	-109.94908  	-1.08941  	21.94203  	26.02374  	-19755.45862  	-4207.66243  	0.00412  	0.00002  	0.00405  	0.00428  	0.00438  	0.00000  	0.00000  
106.81012  	33.41111  	5.10590  	5.32635  	24.73531  	-1.18512  	0.01459  	0.09032  	0.08002  	-3.02442  	0.01642  	-0.08580  	-110.01917  	-1.09287  	23.61627  	26.65710  	-19754.38583  	-4207.64260  	0.00413  	0.00002  	0.00405  	0.00428  	0.00439  	0.00000  	0.00000  
107.80981  	33.41256  	5.10577  	5.32656  	24.73251  	-1.18512  	0.01583  	0.09094  	0.07780  	-3.02442  	0.01673  	-0.08574  	-110.07306  	-1.09454  	22.96279  	26.84042  	-19754.09370  	-4207.64654  	0.00412  	0.00003  	0.00405  	0.00430  	0.00439  	0.00000  	0.00000  
108.81056  	33.41434  	5.10628  	5.32636  	24.73273  	-1.18512  	0.01595  	0.09288  	0.07473  	-3.02442  	0.01492  	-0.08577  	-110.09283  	-1.09103  	22.05508  	27.41339  	-19754.52671  	-4207.66575  	0.00412  	0.00002  	0.00405  	0.00431  	0.00440  	0.00000  	0.00000  
109.81126  	33.41444  	5.10613  	5.32603  	24.73434  	-1.18512  	0.01582  	0.09412  	0.08059  	-3.02442  	0.01346  	-0.08577  	-110.07369  	-1.09015  	23.78513  	27.77863  	-19754.89774  	-4207.63667  	0.00413  	0.00002  	0.00404  	0.00430  	0.00441  	0.00000  	0.00000  
