10/29/2024 11:01:37Time	T_hot_in(C)	T_cold_in(C)	T_cold_out(C)	T_hot_out(C)	mdot_cold(kg/s)	ASFASIFUAS(kg/s)	Diferencial_cold(bar)	Diferencial_hot(bar)	mdot_hot(kg/s)	ABS_cold(bar)	ABS_hot(bar)	q_cold(kW)	q_hot(kW)	ASFASYFY	Tau_cold_haste	Re_hot	Re_cold	U_global	PSIG_cold(bar)	R_fouling	PSIG_hot(bar)	PSID_hot(bar)	m_dot_hot	PSID_cold(bar)	m_dot_cold
1.74448  	0.00000  	0.00000  	0.00000  	0.00000  	-1.18512  	-0.20833  	-0.86278  	-2.50000  	-3.02442  	-1.25000  	-0.08628  	-0.00000  	-0.00000  	-737.84722  	-254.63905  	-9234.48090  	-3618.55272  	0.00000  	0.00000  	0.00000  	0.00000  	0.00000  	0.00000  	0.00000  
2.74399  	33.36209  	5.08642  	5.35084  	28.43525  	-1.18512  	0.03733  	0.32534  	0.33597  	-3.02442  	0.01833  	-0.08565  	-62.47788  	-1.31083  	99.15776  	96.01920  	-20551.62427  	-4207.94239  	0.00454  	0.00003  	0.00406  	0.00472  	0.00547  	0.00000  	0.00000  
3.74674  	33.36129  	5.08611  	5.35128  	28.43122  	-1.18512  	0.03733  	0.32323  	0.33515  	-3.02442  	0.01739  	-0.08579  	-62.51892  	-1.31454  	98.91561  	95.39766  	-20550.56158  	-4207.95084  	0.00454  	0.00002  	0.00406  	0.00472  	0.00546  	0.00000  	0.00000  
4.74833  	33.35999  	5.08634  	5.34938  	28.42257  	-1.18512  	0.03694  	0.31755  	0.33204  	-3.02442  	0.01639  	-0.08584  	-62.61208  	-1.30398  	97.99895  	93.72123  	-20548.37884  	-4207.84993  	0.00453  	0.00002  	0.00405  	0.00471  	0.00544  	0.00000  	0.00000  
5.74933  	33.35864  	5.08590  	5.34877  	28.41493  	-1.18512  	0.03640  	0.31245  	0.32546  	-3.02442  	0.01292  	-0.08569  	-62.69192  	-1.30314  	96.05482  	92.21503  	-20546.40290  	-4207.78736  	0.00452  	0.00003  	0.00404  	0.00470  	0.00541  	0.00000  	0.00000  
6.74933  	33.35849  	5.08565  	5.34835  	28.40487  	-1.18512  	0.03790  	0.31027  	0.32697  	-3.02442  	0.01351  	-0.08577  	-62.81760  	-1.30226  	96.50121  	91.57417  	-20544.16214  	-4207.74711  	0.00452  	0.00002  	0.00404  	0.00473  	0.00540  	0.00000  	0.00000  
7.74926  	33.35687  	5.08418  	5.34728  	28.39325  	-1.18512  	0.03594  	0.31345  	0.33042  	-3.02442  	0.01268  	-0.08578  	-62.94447  	-1.30426  	97.52027  	92.51093  	-20541.25391  	-4207.59448  	0.00453  	0.00002  	0.00404  	0.00469  	0.00542  	0.00000  	0.00000  
8.74932  	33.35726  	5.08505  	5.34703  	28.38036  	-1.18512  	0.03533  	0.31494  	0.33646  	-3.02442  	0.01438  	-0.08571  	-63.11284  	-1.29871  	99.30341  	92.95138  	-20538.50838  	-4207.63219  	0.00454  	0.00003  	0.00405  	0.00468  	0.00543  	0.00000  	0.00000  
9.75038  	33.35641  	5.08368  	5.34705  	28.36893  	-1.18512  	0.03742  	0.31509  	0.32724  	-3.02442  	0.01529  	-0.08572  	-63.24705  	-1.30563  	96.58102  	92.99409  	-20535.81018  	-4207.55098  	0.00452  	0.00003  	0.00405  	0.00472  	0.00543  	0.00000  	0.00000  
10.75136  	33.35516  	5.08362  	5.34646  	28.35906  	-1.18512  	0.03677  	0.31817  	0.32507  	-3.02442  	0.01535  	-0.08570  	-63.35628  	-1.30300  	95.94017  	93.90565  	-20533.36878  	-4207.51189  	0.00452  	0.00003  	0.00405  	0.00471  	0.00544  	0.00000  	0.00000  
11.75126  	33.35534  	5.08291  	5.34521  	28.34871  	-1.18512  	0.03508  	0.31993  	0.33550  	-3.02442  	0.01702  	-0.08581  	-63.48987  	-1.30027  	99.01995  	94.42314  	-20531.13679  	-4207.39468  	0.00454  	0.00002  	0.00405  	0.00467  	0.00545  	0.00000  	0.00000  
12.75136  	33.35541  	5.08348  	5.34480  	28.33832  	-1.18512  	0.03783  	0.32096  	0.33923  	-3.02442  	0.01749  	-0.08572  	-63.62249  	-1.29542  	100.12123  	94.72903  	-20528.86798  	-4207.40443  	0.00454  	0.00003  	0.00406  	0.00473  	0.00545  	0.00000  	0.00000  
13.75205  	33.35543  	5.08396  	5.34472  	28.33044  	-1.18512  	0.03627  	0.32227  	0.34321  	-3.02442  	0.01673  	-0.08565  	-63.72278  	-1.29265  	101.29572  	95.11361  	-20527.14317  	-4207.42830  	0.00455  	0.00003  	0.00405  	0.00470  	0.00546  	0.00000  	0.00000  
14.75281  	33.35336  	5.08331  	5.34366  	28.32213  	-1.18512  	0.03839  	0.32630  	0.33729  	-3.02442  	0.01472  	-0.08573  	-63.80181  	-1.29063  	99.54736  	96.30297  	-20524.86343  	-4207.32522  	0.00454  	0.00003  	0.00405  	0.00474  	0.00548  	0.00000  	0.00000  
15.75425  	33.35178  	5.08244  	5.34399  	28.31622  	-1.18512  	0.03674  	0.32685  	0.34528  	-3.02442  	0.01548  	-0.08579  	-63.85682  	-1.29660  	101.90629  	96.46610  	-20523.21801  	-4207.29293  	0.00455  	0.00002  	0.00405  	0.00471  	0.00548  	0.00000  	0.00000  
16.75513  	33.35142  	5.08309  	5.34427  	28.30972  	-1.18512  	0.03713  	0.32828  	0.34279  	-3.02442  	0.01682  	-0.08578  	-63.93470  	-1.29478  	101.16993  	96.88801  	-20521.71343  	-4207.34874  	0.00455  	0.00002  	0.00405  	0.00471  	0.00549  	0.00000  	0.00000  
17.75490  	33.34884  	5.08268  	5.34434  	28.30505  	-1.18512  	0.03737  	0.33019  	0.34556  	-3.02442  	0.01465  	-0.08587  	-63.96118  	-1.29715  	101.98907  	97.45309  	-20520.12133  	-4207.32871  	0.00455  	0.00002  	0.00405  	0.00472  	0.00550  	0.00000  	0.00000  
18.75518  	33.34653  	5.08270  	5.34381  	28.30214  	-1.18512  	0.03859  	0.33163  	0.34297  	-3.02442  	0.01348  	-0.08557  	-63.96873  	-1.29439  	101.22476  	97.87702  	-20518.97418  	-4207.29794  	0.00455  	0.00003  	0.00404  	0.00474  	0.00550  	0.00000  	0.00000  
19.75575  	33.34402  	5.08274  	5.34337  	28.29896  	-1.18512  	0.03677  	0.33285  	0.35907  	-3.02442  	0.01234  	-0.08582  	-63.97729  	-1.29205  	105.97600  	98.23784  	-20517.72675  	-4207.27426  	0.00457  	0.00002  	0.00404  	0.00471  	0.00551  	0.00000  	0.00000  
20.75676  	33.34144  	5.08231  	5.34335  	28.29748  	-1.18512  	0.03861  	0.33716  	0.34920  	-3.02442  	0.01593  	-0.08564  	-63.96335  	-1.29410  	103.06146  	99.50818  	-20516.83300  	-4207.24712  	0.00456  	0.00003  	0.00405  	0.00474  	0.00553  	0.00000  	0.00000  
21.75722  	33.33924  	5.08218  	5.34371  	28.29636  	-1.18512  	0.03908  	0.33770  	0.35300  	-3.02442  	0.01638  	-0.08577  	-63.94972  	-1.29652  	104.18273  	99.66749  	-20516.10572  	-4207.26104  	0.00456  	0.00002  	0.00405  	0.00475  	0.00553  	0.00000  	0.00000  
22.75719  	33.33698  	5.08229  	5.34453  	28.29532  	-1.18512  	0.03925  	0.33757  	0.35954  	-3.02442  	0.01653  	-0.08567  	-63.93415  	-1.30002  	106.11502  	99.62946  	-20515.38200  	-4207.31638  	0.00458  	0.00003  	0.00405  	0.00475  	0.00553  	0.00000  	0.00000  
23.75721  	33.33579  	5.08115  	5.34299  	28.29468  	-1.18512  	0.03801  	0.33874  	0.35837  	-3.02442  	0.01478  	-0.08581  	-63.92720  	-1.29801  	105.76760  	99.97482  	-20514.98101  	-4207.15599  	0.00457  	0.00002  	0.00405  	0.00473  	0.00554  	0.00000  	0.00000  
24.75723  	33.33228  	5.08019  	5.34136  	28.29458  	-1.18512  	0.03843  	0.33987  	0.36263  	-3.02442  	0.01979  	-0.08573  	-63.88395  	-1.29467  	107.02624  	100.30993  	-20514.18609  	-4207.00060  	0.00458  	0.00003  	0.00406  	0.00474  	0.00554  	0.00000  	0.00000  
25.75831  	33.32936  	5.07909  	5.34162  	28.29487  	-1.18512  	0.03820  	0.34116  	0.35004  	-3.02442  	0.01722  	-0.08566  	-63.84336  	-1.30149  	103.30908  	100.68918  	-20513.60959  	-4206.95025  	0.00456  	0.00003  	0.00406  	0.00473  	0.00555  	0.00000  	0.00000  
26.75961  	33.32681  	5.07847  	5.34014  	28.29678  	-1.18512  	0.03885  	0.34397  	0.36647  	-3.02442  	0.01133  	-0.08578  	-63.78673  	-1.29718  	108.16096  	101.51947  	-20513.46945  	-4206.82387  	0.00459  	0.00002  	0.00404  	0.00475  	0.00556  	0.00000  	0.00000  
27.75933  	33.32501  	5.07803  	5.33953  	28.29931  	-1.18512  	0.03864  	0.34757  	0.36424  	-3.02442  	0.00921  	-0.08579  	-63.73188  	-1.29632  	107.50196  	102.58173  	-20513.63116  	-4206.76176  	0.00458  	0.00002  	0.00403  	0.00474  	0.00558  	0.00000  	0.00000  
28.75955  	33.32230  	5.07764  	5.33927  	28.30146  	-1.18512  	0.03736  	0.34593  	0.36235  	-3.02442  	0.01596  	-0.08574  	-63.67017  	-1.29702  	106.94364  	102.09731  	-20513.50708  	-4206.72231  	0.00458  	0.00002  	0.00405  	0.00472  	0.00557  	0.00000  	0.00000  
29.75962  	33.31908  	5.07642  	5.33887  	28.30301  	-1.18512  	0.03773  	0.34578  	0.36899  	-3.02442  	0.01398  	-0.08577  	-63.60968  	-1.30105  	108.90201  	102.05336  	-20513.13980  	-4206.62568  	0.00459  	0.00002  	0.00404  	0.00472  	0.00557  	0.00000  	0.00000  
30.75918  	33.31741  	5.07711  	5.33842  	28.30540  	-1.18512  	0.04199  	0.34965  	0.36468  	-3.02442  	0.00942  	-0.08580  	-63.55828  	-1.29537  	107.63206  	103.19499  	-20513.29925  	-4206.63969  	0.00458  	0.00002  	0.00403  	0.00481  	0.00559  	0.00000  	0.00000  
31.75903  	33.31462  	5.07667  	5.33926  	28.30767  	-1.18512  	0.03576  	0.34935  	0.37427  	-3.02442  	0.01602  	-0.08572  	-63.49419  	-1.30175  	110.46169  	103.10710  	-20513.18305  	-4206.66339  	0.00460  	0.00003  	0.00405  	0.00469  	0.00558  	0.00000  	0.00000  
32.75921  	33.31016  	5.07710  	5.33927  	28.30970  	-1.18512  	0.03918  	0.35161  	0.37194  	-3.02442  	0.02098  	-0.08573  	-63.41173  	-1.29967  	109.77377  	103.77372  	-20512.64951  	-4206.69016  	0.00460  	0.00003  	0.00407  	0.00475  	0.00560  	0.00000  	0.00000  
33.75914  	33.30890  	5.07703  	5.33953  	28.31162  	-1.18512  	0.04080  	0.35187  	0.37036  	-3.02442  	0.01513  	-0.08564  	-63.37144  	-1.30131  	109.30735  	103.84975  	-20512.79457  	-4206.70115  	0.00459  	0.00003  	0.00405  	0.00478  	0.00560  	0.00000  	0.00000  
34.75902  	33.30901  	5.07705  	5.34041  	28.31386  	-1.18512  	0.03950  	0.35166  	0.37390  	-3.02442  	0.01760  	-0.08564  	-63.34453  	-1.30557  	110.35145  	103.78958  	-20513.31185  	-4206.75551  	0.00460  	0.00003  	0.00406  	0.00476  	0.00560  	0.00000  	0.00000  
35.75898  	33.30749  	5.07748  	5.34015  	28.31693  	-1.18512  	0.04102  	0.35539  	0.37181  	-3.02442  	0.01357  	-0.08581  	-63.28630  	-1.30213  	109.73417  	104.88883  	-20513.65089  	-4206.76526  	0.00459  	0.00002  	0.00404  	0.00479  	0.00561  	0.00000  	0.00000  
36.76083  	33.30520  	5.07704  	5.34055  	28.31962  	-1.18512  	0.03917  	0.35647  	0.37396  	-3.02442  	0.01231  	-0.08584  	-63.22310  	-1.30628  	110.36867  	105.20888  	-20513.73947  	-4206.76305  	0.00460  	0.00002  	0.00404  	0.00475  	0.00562  	0.00000  	0.00000  
37.76149  	33.30420  	5.07649  	5.33985  	28.32262  	-1.18512  	0.03761  	0.35748  	0.38660  	-3.02442  	0.00594  	-0.08573  	-63.17246  	-1.30556  	114.09986  	105.50615  	-20514.17804  	-4206.68804  	0.00462  	0.00003  	0.00402  	0.00472  	0.00562  	0.00000  	0.00000  
38.76310  	33.30341  	5.07649  	5.33938  	28.32463  	-1.18512  	0.03841  	0.35510  	0.37884  	-3.02442  	0.01258  	-0.08570  	-63.13690  	-1.30322  	111.81088  	104.80276  	-20514.44409  	-4206.65982  	0.00461  	0.00003  	0.00404  	0.00474  	0.00561  	0.00000  	0.00000  
39.76474  	33.30230  	5.07605  	5.33866  	28.32781  	-1.18512  	0.03766  	0.35728  	0.38228  	-3.02442  	0.01665  	-0.08571  	-63.08249  	-1.30182  	112.82579  	105.44683  	-20514.89989  	-4206.59027  	0.00461  	0.00003  	0.00405  	0.00472  	0.00562  	0.00000  	0.00000  
40.76392  	33.30220  	5.07570  	5.33999  	28.33049  	-1.18512  	0.04130  	0.35886  	0.38199  	-3.02442  	0.01545  	-0.08569  	-63.04728  	-1.31016  	112.74081  	105.91226  	-20515.46540  	-4206.64919  	0.00461  	0.00003  	0.00405  	0.00479  	0.00563  	0.00000  	0.00000  
41.76437  	33.30183  	5.07603  	5.34039  	28.33355  	-1.18512  	0.03873  	0.36058  	0.38270  	-3.02442  	0.01518  	-0.08576  	-63.00369  	-1.31052  	112.94822  	106.42189  	-20516.05672  	-4206.69308  	0.00461  	0.00002  	0.00405  	0.00474  	0.00564  	0.00000  	0.00000  
42.76452  	33.30011  	5.07634  	5.33926  	28.33550  	-1.18512  	0.03771  	0.36362  	0.38246  	-3.02442  	0.01153  	-0.08578  	-62.95716  	-1.30339  	112.88011  	107.31975  	-20516.10777  	-4206.64435  	0.00461  	0.00002  	0.00404  	0.00472  	0.00565  	0.00000  	0.00000  
43.76528  	33.29867  	5.07584  	5.33800  	28.33904  	-1.18512  	0.03990  	0.36122  	0.38418  	-3.02442  	0.01710  	-0.08573  	-62.89405  	-1.29960  	113.38700  	106.61026  	-20516.56817  	-4206.53824  	0.00461  	0.00003  	0.00405  	0.00477  	0.00564  	0.00000  	0.00000  
44.76537  	33.29921  	5.07612  	5.33966  	28.34164  	-1.18512  	0.04226  	0.36316  	0.38166  	-3.02442  	0.01340  	-0.08564  	-62.86792  	-1.30649  	112.64361  	107.18149  	-20517.25676  	-4206.65476  	0.00461  	0.00003  	0.00404  	0.00481  	0.00565  	0.00000  	0.00000  
45.76530  	33.29928  	5.07597  	5.34044  	28.34415  	-1.18512  	0.03961  	0.36342  	0.38816  	-3.02442  	0.01384  	-0.08580  	-62.83692  	-1.31106  	114.56254  	107.26002  	-20517.82359  	-4206.69205  	0.00462  	0.00002  	0.00404  	0.00476  	0.00565  	0.00000  	0.00000  
46.76530  	33.29738  	5.07641  	5.33987  	28.34637  	-1.18512  	0.03803  	0.36607  	0.39077  	-3.02442  	0.01219  	-0.08570  	-62.78469  	-1.30606  	115.33130  	108.04065  	-20517.89368  	-4206.68428  	0.00463  	0.00003  	0.00404  	0.00473  	0.00566  	0.00000  	0.00000  
47.76579  	33.29620  	5.07601  	5.34001  	28.34969  	-1.18512  	0.03867  	0.36568  	0.38944  	-3.02442  	0.01358  	-0.08580  	-62.72770  	-1.30871  	114.93827  	107.92530  	-20518.36538  	-4206.66887  	0.00462  	0.00002  	0.00404  	0.00474  	0.00566  	0.00000  	0.00000  
48.76522  	33.29413  	5.07558  	5.33966  	28.35271  	-1.18512  	0.03893  	0.36273  	0.38284  	-3.02442  	0.01709  	-0.08578  	-62.66310  	-1.30917  	112.99219  	107.05576  	-20518.57305  	-4206.62249  	0.00461  	0.00002  	0.00405  	0.00475  	0.00565  	0.00000  	0.00000  
49.76531  	33.29327  	5.07456  	5.33985  	28.35585  	-1.18512  	0.03956  	0.35674  	0.37682  	-3.02442  	0.01518  	-0.08579  	-62.61253  	-1.31511  	111.21326  	105.28836  	-20519.07388  	-4206.57238  	0.00460  	0.00002  	0.00405  	0.00476  	0.00562  	0.00000  	0.00000  
50.76549  	33.29279  	5.07522  	5.33906  	28.35843  	-1.18512  	0.04062  	0.35166  	0.36912  	-3.02442  	0.01509  	-0.08567  	-62.57366  	-1.30796  	108.94202  	103.78780  	-20519.53555  	-4206.56480  	0.00459  	0.00003  	0.00405  	0.00478  	0.00560  	0.00000  	0.00000  
51.76507  	33.29301  	5.07464  	5.33852  	28.35873  	-1.18512  	0.03995  	0.34436  	0.36310  	-3.02442  	0.01555  	-0.08567  	-62.57257  	-1.30816  	107.16492  	101.63456  	-20519.64873  	-4206.49768  	0.00458  	0.00003  	0.00405  	0.00477  	0.00556  	0.00000  	0.00000  
52.76724  	33.29009  	5.07367  	5.33772  	28.35892  	-1.18512  	0.03741  	0.33889  	0.35622  	-3.02442  	0.01668  	-0.08577  	-62.53320  	-1.30897  	105.13402  	100.02094  	-20519.04776  	-4206.39170  	0.00457  	0.00002  	0.00405  	0.00472  	0.00554  	0.00000  	0.00000  
53.76724  	33.28698  	5.07404  	5.33804  	28.35717  	-1.18512  	0.03847  	0.33420  	0.34969  	-3.02442  	0.01696  	-0.08569  	-62.51595  	-1.30872  	103.20698  	98.63425  	-20517.98097  	-4206.43264  	0.00456  	0.00003  	0.00405  	0.00474  	0.00551  	0.00000  	0.00000  
54.76829  	33.28671  	5.07378  	5.33667  	28.35268  	-1.18512  	0.03757  	0.32831  	0.34246  	-3.02442  	0.01379  	-0.08577  	-62.56946  	-1.30325  	101.07193  	96.89760  	-20516.93743  	-4206.33523  	0.00455  	0.00002  	0.00404  	0.00472  	0.00549  	0.00000  	0.00000  
55.76963  	33.28439  	5.07394  	5.33656  	28.34676  	-1.18512  	0.03903  	0.32208  	0.33641  	-3.02442  	0.01388  	-0.08578  	-62.61513  	-1.30191  	99.28629  	95.05975  	-20515.12979  	-4206.33836  	0.00454  	0.00002  	0.00404  	0.00475  	0.00546  	0.00000  	0.00000  
56.76927  	33.28368  	5.07330  	5.33585  	28.33850  	-1.18512  	0.03759  	0.31611  	0.32687  	-3.02442  	0.01465  	-0.08588  	-62.71088  	-1.30152  	96.47298  	93.29669  	-20513.15799  	-4206.25719  	0.00452  	0.00002  	0.00405  	0.00472  	0.00543  	0.00000  	0.00000  
57.76960  	33.28074  	5.07327  	5.33534  	28.33084  	-1.18512  	0.03608  	0.31060  	0.32260  	-3.02442  	0.01612  	-0.08576  	-62.77084  	-1.29913  	95.21281  	91.66964  	-20510.83188  	-4206.22482  	0.00452  	0.00002  	0.00405  	0.00469  	0.00541  	0.00000  	0.00000  
58.77027  	33.27924  	5.07348  	5.33515  	28.31952  	-1.18512  	0.03589  	0.30743  	0.32370  	-3.02442  	0.01623  	-0.08577  	-62.89532  	-1.29719  	95.53786  	90.73393  	-20508.01860  	-4206.22633  	0.00452  	0.00002  	0.00405  	0.00469  	0.00539  	0.00000  	0.00000  
59.77040  	33.27894  	5.07304  	5.33522  	28.30679  	-1.18512  	0.03496  	0.30731  	0.32740  	-3.02442  	0.01340  	-0.08578  	-63.05291  	-1.29970  	96.62818  	90.69789  	-20505.15818  	-4206.20376  	0.00452  	0.00002  	0.00404  	0.00467  	0.00539  	0.00000  	0.00000  
60.77058  	33.27588  	5.07304  	5.33353  	28.29407  	-1.18512  	0.03710  	0.31041  	0.32398  	-3.02442  	0.01666  	-0.08576  	-63.17545  	-1.29135  	95.61830  	91.61459  	-20501.69375  	-4206.10281  	0.00452  	0.00002  	0.00405  	0.00471  	0.00541  	0.00000  	0.00000  
61.77121  	33.27307  	5.07260  	5.33260  	28.28171  	-1.18512  	0.03642  	0.31203  	0.33165  	-3.02442  	0.01295  	-0.08565  	-63.29661  	-1.28893  	97.88213  	92.09247  	-20498.36307  	-4206.02066  	0.00453  	0.00003  	0.00404  	0.00470  	0.00541  	0.00000  	0.00000  
62.77121  	33.27386  	5.07226  	5.33216  	28.26926  	-1.18512  	0.03757  	0.31534  	0.33203  	-3.02442  	0.01633  	-0.08557  	-63.46456  	-1.28844  	97.99559  	93.06983  	-20495.80494  	-4205.97396  	0.00453  	0.00003  	0.00405  	0.00472  	0.00543  	0.00000  	0.00000  
63.77151  	33.27260  	5.07068  	5.33079  	28.25589  	-1.18512  	0.03588  	0.31611  	0.33318  	-3.02442  	0.01542  	-0.08557  	-63.61813  	-1.28948  	98.33479  	93.29702  	-20492.59508  	-4205.79692  	0.00453  	0.00003  	0.00405  	0.00469  	0.00543  	0.00000  	0.00000  
64.77265  	33.27285  	5.06976  	5.33000  	28.24531  	-1.18512  	0.03689  	0.32048  	0.33674  	-3.02442  	0.01389  	-0.08563  	-63.75541  	-1.29007  	99.38533  	94.58641  	-20490.32617  	-4205.69460  	0.00454  	0.00003  	0.00404  	0.00471  	0.00545  	0.00000  	0.00000  
65.77241  	33.27078  	5.06900  	5.32962  	28.23660  	-1.18512  	0.03629  	0.32055  	0.33781  	-3.02442  	0.01465  	-0.08563  	-63.83966  	-1.29196  	99.70091  	94.60623  	-20487.96121  	-4205.62624  	0.00454  	0.00003  	0.00405  	0.00470  	0.00545  	0.00000  	0.00000  
66.77234  	33.26904  	5.06827  	5.32826  	28.22789  	-1.18512  	0.03808  	0.32209  	0.34373  	-3.02442  	0.01608  	-0.08586  	-63.92799  	-1.28886  	101.44774  	95.06035  	-20485.66827  	-4205.50043  	0.00455  	0.00002  	0.00405  	0.00473  	0.00546  	0.00000  	0.00000  
67.77364  	33.26814  	5.06777  	5.32756  	28.22283  	-1.18512  	0.03861  	0.32379  	0.34414  	-3.02442  	0.01580  	-0.08596  	-63.98080  	-1.28785  	101.56987  	95.56449  	-20484.36026  	-4205.42879  	0.00455  	0.00001  	0.00405  	0.00474  	0.00547  	0.00000  	0.00000  
68.77432  	33.26476  	5.06743  	5.32651  	28.21673  	-1.18512  	0.03882  	0.32644  	0.35081  	-3.02442  	0.01401  	-0.08590  	-64.01535  	-1.28432  	103.53694  	96.34602  	-20482.27841  	-4205.34545  	0.00456  	0.00002  	0.00404  	0.00475  	0.00548  	0.00000  	0.00000  
69.77471  	33.26476  	5.06717  	5.32625  	28.21254  	-1.18512  	0.03883  	0.33012  	0.33581  	-3.02442  	0.01312  	-0.08566  	-64.06841  	-1.28432  	99.11051  	97.43170  	-20481.36047  	-4205.31446  	0.00454  	0.00003  	0.00404  	0.00475  	0.00550  	0.00000  	0.00000  
70.77424  	33.26369  	5.06628  	5.32504  	28.21001  	-1.18512  	0.03807  	0.32922  	0.35153  	-3.02442  	0.01440  	-0.08571  	-64.08708  	-1.28274  	103.74901  	97.16496  	-20480.57013  	-4205.18812  	0.00456  	0.00003  	0.00405  	0.00473  	0.00549  	0.00000  	0.00000  
71.77421  	33.26094  	5.06677  	5.32428  	28.20787  	-1.18512  	0.03627  	0.32883  	0.35092  	-3.02442  	0.01622  	-0.08580  	-64.07930  	-1.27657  	103.56880  	97.04957  	-20479.49662  	-4205.17201  	0.00456  	0.00002  	0.00405  	0.00470  	0.00549  	0.00000  	0.00000  
72.77552  	33.26067  	5.06678  	5.32411  	28.20701  	-1.18512  	0.03893  	0.33358  	0.35025  	-3.02442  	0.01617  	-0.08559  	-64.08687  	-1.27567  	103.37238  	98.45332  	-20479.25030  	-4205.16230  	0.00456  	0.00003  	0.00405  	0.00475  	0.00551  	0.00000  	0.00000  
73.77635  	33.25906  	5.06656  	5.32456  	28.20661  	-1.18512  	0.03759  	0.33428  	0.35404  	-3.02442  	0.01616  	-0.08559  	-64.07153  	-1.27898  	104.49069  	98.66020  	-20478.80840  	-4205.17636  	0.00457  	0.00003  	0.00405  	0.00472  	0.00552  	0.00000  	0.00000  
74.77639  	33.25928  	5.06624  	5.32439  	28.20653  	-1.18512  	0.03705  	0.33722  	0.36136  	-3.02442  	0.01441  	-0.08574  	-64.07533  	-1.27971  	106.65221  	99.52691  	-20478.83961  	-4205.14720  	0.00458  	0.00002  	0.00405  	0.00471  	0.00553  	0.00000  	0.00000  
75.77765  	33.25631  	5.06578  	5.32458  	28.20718  	-1.18512  	0.03709  	0.33843  	0.35243  	-3.02442  	0.01417  	-0.08577  	-64.02935  	-1.28297  	104.01655  	99.88390  	-20478.33010  	-4205.13098  	0.00456  	0.00002  	0.00405  	0.00471  	0.00553  	0.00000  	0.00000  
76.77827  	33.25574  	5.06633  	5.32610  	28.20858  	-1.18512  	0.04001  	0.33930  	0.35951  	-3.02442  	0.01350  	-0.08574  	-64.00435  	-1.28774  	106.10651  	100.13992  	-20478.51346  	-4205.25538  	0.00458  	0.00003  	0.00404  	0.00477  	0.00554  	0.00000  	0.00000  
77.77843  	33.25598  	5.06580  	5.32480  	28.21037  	-1.18512  	0.03900  	0.33808  	0.35981  	-3.02442  	0.01861  	-0.08565  	-63.98479  	-1.28395  	106.19306  	99.78074  	-20478.95686  	-4205.14489  	0.00458  	0.00003  	0.00406  	0.00475  	0.00553  	0.00000  	0.00000  
78.77944  	33.25578  	5.06569  	5.32605  	28.21290  	-1.18512  	0.04112  	0.34158  	0.35579  	-3.02442  	0.01507  	-0.08584  	-63.95001  	-1.29071  	105.00801  	100.81356  	-20479.46905  	-4205.21391  	0.00457  	0.00002  	0.00405  	0.00479  	0.00555  	0.00000  	0.00000  
79.77940  	33.25531  	5.06607  	5.32617  	28.21498  	-1.18512  	0.03900  	0.34165  	0.36589  	-3.02442  	0.01674  	-0.08580  	-63.91775  	-1.28941  	107.98942  	100.83386  	-20479.82010  	-4205.24362  	0.00459  	0.00002  	0.00405  	0.00475  	0.00555  	0.00000  	0.00000  
80.78037  	33.25438  	5.06625  	5.32602  	28.21806  	-1.18512  	0.04031  	0.34227  	0.36686  	-3.02442  	0.01316  	-0.08588  	-63.86683  	-1.28773  	108.27325  	101.01633  	-20480.29309  	-4205.24559  	0.00459  	0.00002  	0.00404  	0.00477  	0.00555  	0.00000  	0.00000  
81.78148  	33.25421  	5.06580  	5.32601  	28.22006  	-1.18512  	0.03805  	0.34417  	0.37599  	-3.02442  	0.01337  	-0.08574  	-63.83938  	-1.28997  	110.96995  	101.57811  	-20480.69511  	-4205.21798  	0.00460  	0.00003  	0.00404  	0.00473  	0.00556  	0.00000  	0.00000  
82.78123  	33.25318  	5.06523  	5.32676  	28.22324  	-1.18512  	0.03650  	0.34679  	0.36238  	-3.02442  	0.01609  	-0.08558  	-63.78595  	-1.29650  	106.95366  	102.35186  	-20481.16679  	-4205.22898  	0.00458  	0.00003  	0.00405  	0.00470  	0.00557  	0.00000  	0.00000  
83.78243  	33.25336  	5.06415  	5.32647  	28.22677  	-1.18512  	0.03989  	0.34628  	0.36490  	-3.02442  	0.01723  	-0.08569  	-63.74360  	-1.30044  	107.69531  	102.20146  	-20481.98026  	-4205.14665  	0.00458  	0.00003  	0.00406  	0.00477  	0.00557  	0.00000  	0.00000  
84.78360  	33.25264  	5.06471  	5.32670  	28.23085  	-1.18512  	0.03748  	0.34827  	0.36608  	-3.02442  	0.01432  	-0.08575  	-63.68264  	-1.29878  	108.04419  	102.78860  	-20482.71711  	-4205.19421  	0.00459  	0.00002  	0.00405  	0.00472  	0.00558  	0.00000  	0.00000  
85.78489  	33.25244  	5.06473  	5.32609  	28.23453  	-1.18512  	0.03806  	0.35251  	0.36946  	-3.02442  	0.01598  	-0.08576  	-63.63347  	-1.29567  	109.04144  	104.04034  	-20483.48017  	-4205.15845  	0.00459  	0.00002  	0.00405  	0.00473  	0.00560  	0.00000  	0.00000  
86.78537  	33.25213  	5.06399  	5.32591  	28.23820  	-1.18512  	0.03934  	0.35334  	0.36845  	-3.02442  	0.01355  	-0.08576  	-63.58295  	-1.29841  	108.74537  	104.28478  	-20484.21949  	-4205.10357  	0.00459  	0.00002  	0.00404  	0.00476  	0.00560  	0.00000  	0.00000  
87.78531  	33.25238  	5.06436  	5.32666  	28.24285  	-1.18512  	0.03974  	0.35457  	0.36761  	-3.02442  	0.01599  	-0.08583  	-63.52718  	-1.30028  	108.49557  	104.64747  	-20485.29397  	-4205.17037  	0.00459  	0.00002  	0.00405  	0.00476  	0.00561  	0.00000  	0.00000  
88.78627  	33.25317  	5.06410  	5.32554  	28.24719  	-1.18512  	0.04047  	0.35179  	0.36925  	-3.02442  	0.01634  	-0.08571  	-63.48226  	-1.29607  	108.97975  	103.82795  	-20486.42078  	-4205.08773  	0.00459  	0.00003  	0.00405  	0.00478  	0.00560  	0.00000  	0.00000  
89.78646  	33.25344  	5.06281  	5.32502  	28.25069  	-1.18512  	0.04024  	0.35323  	0.37495  	-3.02442  	0.01338  	-0.08589  	-63.44125  	-1.29985  	110.66207  	104.25188  	-20487.24926  	-4204.97956  	0.00460  	0.00002  	0.00404  	0.00477  	0.00560  	0.00000  	0.00000  
90.78846  	33.25294  	5.06207  	5.32493  	28.25472  	-1.18512  	0.03973  	0.35300  	0.37019  	-3.02442  	0.01570  	-0.08572  	-63.38384  	-1.30311  	109.25676  	104.18341  	-20488.02070  	-4204.92963  	0.00459  	0.00003  	0.00405  	0.00476  	0.00560  	0.00000  	0.00000  
91.78820  	33.25387  	5.06234  	5.32331  	28.25854  	-1.18512  	0.04256  	0.35412  	0.37266  	-3.02442  	0.01668  	-0.08574  	-63.34725  	-1.29368  	109.98705  	104.51491  	-20489.06424  	-4204.84878  	0.00460  	0.00003  	0.00405  	0.00482  	0.00561  	0.00000  	0.00000  
92.78822  	33.25297  	5.06184  	5.32394  	28.26375  	-1.18512  	0.03988  	0.35686  	0.38223  	-3.02442  	0.01472  	-0.08572  	-63.26967  	-1.29934  	112.81229  	105.32185  	-20490.01181  	-4204.85639  	0.00461  	0.00003  	0.00405  	0.00477  	0.00562  	0.00000  	0.00000  
93.78924  	33.25283  	5.06144  	5.32434  	28.26823  	-1.18512  	0.03772  	0.35941  	0.38050  	-3.02442  	0.01541  	-0.08574  	-63.21102  	-1.30326  	112.29934  	106.07497  	-20490.96346  	-4204.85640  	0.00461  	0.00002  	0.00405  	0.00472  	0.00563  	0.00000  	0.00000  
94.78924  	33.25375  	5.06083  	5.32474  	28.27282  	-1.18512  	0.03802  	0.36228  	0.38502  	-3.02442  	0.01473  	-0.08574  	-63.16462  	-1.30828  	113.63427  	106.92415  	-20492.17207  	-4204.84346  	0.00462  	0.00003  	0.00405  	0.00473  	0.00564  	0.00000  	0.00000  
95.78924  	33.25177  	5.06139  	5.32551  	28.27838  	-1.18512  	0.03851  	0.36355  	0.38412  	-3.02442  	0.01584  	-0.08574  	-63.06895  	-1.30929  	113.36803  	107.29767  	-20492.95972  	-4204.92359  	0.00461  	0.00003  	0.00405  	0.00474  	0.00565  	0.00000  	0.00000  
96.79060  	33.25196  	5.06214  	5.32452  	28.28209  	-1.18512  	0.03671  	0.36287  	0.38390  	-3.02442  	0.01452  	-0.08583  	-63.02440  	-1.30067  	113.30448  	107.09771  	-20493.81367  	-4204.90915  	0.00461  	0.00002  	0.00405  	0.00470  	0.00565  	0.00000  	0.00000  
97.79031  	33.25259  	5.06252  	5.32548  	28.28616  	-1.18512  	0.03903  	0.36398  	0.38496  	-3.02442  	0.01403  	-0.08585  	-62.98072  	-1.30355  	113.61798  	107.42422  	-20494.84710  	-4204.98948  	0.00462  	0.00002  	0.00404  	0.00475  	0.00565  	0.00000  	0.00000  
98.79025  	33.25213  	5.06233  	5.32550  	28.28988  	-1.18512  	0.04233  	0.36247  	0.37623  	-3.02442  	0.01979  	-0.08545  	-62.92769  	-1.30460  	111.04052  	106.97933  	-20495.56297  	-4204.97962  	0.00460  	0.00004  	0.00406  	0.00481  	0.00565  	0.00000  	0.00000  
99.79196  	33.25125  	5.06281  	5.32471  	28.29419  	-1.18512  	0.04262  	0.36033  	0.38615  	-3.02442  	0.01801  	-0.08570  	-62.86190  	-1.29831  	113.96672  	106.34855  	-20496.31347  	-4204.96054  	0.00462  	0.00003  	0.00406  	0.00482  	0.00564  	0.00000  	0.00000  
100.79452  	33.24926  	5.06261  	5.32557  	28.29700  	-1.18512  	0.04332  	0.36157  	0.38787  	-3.02442  	0.01355  	-0.08576  	-62.80095  	-1.30359  	114.47548  	106.71456  	-20496.49361  	-4205.00053  	0.00462  	0.00002  	0.00404  	0.00483  	0.00564  	0.00000  	0.00000  
