10/29/2024 09:59:07Time	T_hot_in(C)	T_cold_in(C)	T_cold_out(C)	T_hot_out(C)	mdot_cold(kg/s)	ASFASIFUAS(kg/s)	Diferencial_cold(bar)	Diferencial_hot(bar)	mdot_hot(kg/s)	ABS_cold(bar)	ABS_hot(bar)	q_cold(kW)	q_hot(kW)	ASFASYFY	Tau_cold_haste	Re_hot	Re_cold	U_global	PSIG_cold(bar)	R_fouling	PSIG_hot(bar)	PSID_hot(bar)	m_dot_hot	PSID_cold(bar)	m_dot_cold
1.75220  	0.00000  	0.00000  	0.00000  	0.00000  	-1.18512  	-0.20833  	-0.86278  	-2.50000  	-3.02442  	-1.25000  	-0.08628  	-0.00000  	-0.00000  	-737.84722  	-254.63905  	-9234.48090  	-3618.55272  	0.00000  	0.00000  	0.00000  	0.00000  	0.00000  	0.00000  	0.00000  
2.75328  	33.35023  	5.09787  	5.35894  	28.16623  	-1.18512  	0.03653  	0.31627  	0.33449  	-3.02442  	0.01597  	-0.08585  	-65.73871  	-1.29417  	98.72221  	93.34411  	-20489.95429  	-4209.11498  	0.00454  	0.00002  	0.00405  	0.00470  	0.00543  	0.00000  	0.00000  
3.75420  	33.35095  	5.09862  	5.36021  	28.16930  	-1.18512  	0.03641  	0.31898  	0.32829  	-3.02442  	0.01350  	-0.08572  	-65.70891  	-1.29677  	96.89056  	94.14382  	-20490.78371  	-4209.23610  	0.00453  	0.00003  	0.00404  	0.00470  	0.00544  	0.00000  	0.00000  
4.75439  	33.35260  	5.09864  	5.36179  	28.17512  	-1.18512  	0.03669  	0.32109  	0.34044  	-3.02442  	0.01595  	-0.08585  	-65.65597  	-1.30454  	100.47837  	94.76698  	-20492.42380  	-4209.33202  	0.00454  	0.00002  	0.00405  	0.00470  	0.00545  	0.00000  	0.00000  
5.75419  	33.35440  	5.09899  	5.36116  	28.17947  	-1.18512  	0.03790  	0.32103  	0.33872  	-3.02442  	0.01409  	-0.08566  	-65.62376  	-1.29964  	99.96964  	94.74725  	-20493.77442  	-4209.31520  	0.00454  	0.00003  	0.00405  	0.00473  	0.00545  	0.00000  	0.00000  
6.75525  	33.35644  	5.09910  	5.36158  	28.18467  	-1.18512  	0.03904  	0.32310  	0.33723  	-3.02442  	0.01416  	-0.08580  	-65.58349  	-1.30122  	99.53038  	95.36053  	-20495.36401  	-4209.34704  	0.00454  	0.00002  	0.00405  	0.00475  	0.00546  	0.00000  	0.00000  
7.75586  	33.35837  	5.09971  	5.36059  	28.18999  	-1.18512  	0.03721  	0.32443  	0.34489  	-3.02442  	0.01568  	-0.08580  	-65.54058  	-1.29324  	101.78936  	95.75113  	-20496.95386  	-4209.32450  	0.00455  	0.00002  	0.00405  	0.00471  	0.00547  	0.00000  	0.00000  
8.75665  	33.35970  	5.09939  	5.36138  	28.19642  	-1.18512  	0.03575  	0.32598  	0.34417  	-3.02442  	0.01518  	-0.08573  	-65.47596  	-1.29876  	101.57913  	96.20846  	-20498.65815  	-4209.35267  	0.00455  	0.00003  	0.00405  	0.00469  	0.00548  	0.00000  	0.00000  
9.75694  	33.36213  	5.09901  	5.36110  	28.20259  	-1.18512  	0.03714  	0.32747  	0.34561  	-3.02442  	0.01518  	-0.08570  	-65.42842  	-1.29923  	102.00220  	96.64945  	-20500.54663  	-4209.31293  	0.00455  	0.00003  	0.00405  	0.00471  	0.00548  	0.00000  	0.00000  
10.75698  	33.36332  	5.09930  	5.36046  	28.20924  	-1.18512  	0.03708  	0.32946  	0.34398  	-3.02442  	0.01374  	-0.08579  	-65.35928  	-1.29468  	101.52193  	97.23555  	-20502.26656  	-4209.29213  	0.00455  	0.00002  	0.00404  	0.00471  	0.00549  	0.00000  	0.00000  
11.75694  	33.36443  	5.09825  	5.35929  	28.21725  	-1.18512  	0.03804  	0.32993  	0.34543  	-3.02442  	0.01855  	-0.08587  	-65.27172  	-1.29407  	101.95049  	97.37599  	-20504.26941  	-4209.15917  	0.00455  	0.00002  	0.00406  	0.00473  	0.00550  	0.00000  	0.00000  
12.75678  	33.36702  	5.09860  	5.36011  	28.22465  	-1.18512  	0.03620  	0.33165  	0.35122  	-3.02442  	0.01292  	-0.08575  	-65.21078  	-1.29639  	103.65774  	97.88200  	-20506.46050  	-4209.22858  	0.00456  	0.00002  	0.00404  	0.00469  	0.00550  	0.00000  	0.00000  
13.75677  	33.36950  	5.09848  	5.36037  	28.23081  	-1.18512  	0.03763  	0.33130  	0.35146  	-3.02442  	0.01306  	-0.08567  	-65.16414  	-1.29826  	103.72950  	97.77932  	-20508.35878  	-4209.23778  	0.00456  	0.00003  	0.00404  	0.00472  	0.00550  	0.00000  	0.00000  
14.75773  	33.37061  	5.09838  	5.35909  	28.23760  	-1.18512  	0.03696  	0.33565  	0.34989  	-3.02442  	0.01765  	-0.08572  	-65.09214  	-1.29241  	103.26671  	99.06448  	-20510.09240  	-4209.15469  	0.00456  	0.00003  	0.00406  	0.00471  	0.00552  	0.00000  	0.00000  
15.75688  	33.37332  	5.09775  	5.35910  	28.24524  	-1.18512  	0.03710  	0.33325  	0.35046  	-3.02442  	0.01404  	-0.08578  	-65.02956  	-1.29559  	103.43584  	98.35480  	-20512.36545  	-4209.11737  	0.00456  	0.00002  	0.00404  	0.00471  	0.00551  	0.00000  	0.00000  
16.75755  	33.37505  	5.09895  	5.36004  	28.25368  	-1.18512  	0.03923  	0.33706  	0.35579  	-3.02442  	0.01270  	-0.08574  	-64.94448  	-1.29427  	105.00739  	99.47998  	-20514.59573  	-4209.24565  	0.00457  	0.00002  	0.00404  	0.00475  	0.00553  	0.00000  	0.00000  
17.75861  	33.37710  	5.09912  	5.36110  	28.26009  	-1.18512  	0.03837  	0.33567  	0.35634  	-3.02442  	0.01649  	-0.08573  	-64.88922  	-1.29872  	105.16898  	99.06826  	-20516.45367  	-4209.31901  	0.00457  	0.00003  	0.00405  	0.00474  	0.00552  	0.00000  	0.00000  
18.75799  	33.37975  	5.09889  	5.36158  	28.26749  	-1.18512  	0.03803  	0.33822  	0.35458  	-3.02442  	0.01477  	-0.08586  	-64.82892  	-1.30225  	104.65006  	99.82160  	-20518.66101  	-4209.33488  	0.00457  	0.00002  	0.00405  	0.00473  	0.00553  	0.00000  	0.00000  
19.75852  	33.38160  	5.10023  	5.36242  	28.27504  	-1.18512  	0.03836  	0.33660  	0.35319  	-3.02442  	0.01607  	-0.08570  	-64.75658  	-1.29978  	104.23951  	99.34398  	-20520.72484  	-4209.46502  	0.00457  	0.00003  	0.00405  	0.00474  	0.00553  	0.00000  	0.00000  
20.75848  	33.38380  	5.10002  	5.36340  	28.28265  	-1.18512  	0.03773  	0.33829  	0.35688  	-3.02442  	0.01479  	-0.08568  	-64.68795  	-1.30564  	105.32998  	99.84306  	-20522.87792  	-4209.51151  	0.00457  	0.00003  	0.00405  	0.00472  	0.00553  	0.00000  	0.00000  
21.75919  	33.38554  	5.10104  	5.36453  	28.28933  	-1.18512  	0.03911  	0.33954  	0.35745  	-3.02442  	0.01654  	-0.08572  	-64.62527  	-1.30619  	105.49717  	100.21000  	-20524.72883  	-4209.64033  	0.00457  	0.00003  	0.00405  	0.00475  	0.00554  	0.00000  	0.00000  
22.76047  	33.38714  	5.10179  	5.36561  	28.29528  	-1.18512  	0.03688  	0.33927  	0.36155  	-3.02442  	0.01411  	-0.08572  	-64.57014  	-1.30781  	106.70792  	100.13249  	-20526.38653  	-4209.75034  	0.00458  	0.00003  	0.00405  	0.00471  	0.00554  	0.00000  	0.00000  
23.76081  	33.38890  	5.10179  	5.36614  	28.30215  	-1.18512  	0.03753  	0.34131  	0.35204  	-3.02442  	0.01548  	-0.08557  	-64.50530  	-1.31049  	103.90075  	100.73265  	-20528.27906  	-4209.78187  	0.00456  	0.00003  	0.00405  	0.00472  	0.00555  	0.00000  	0.00000  
24.76113  	33.39164  	5.10280  	5.36787  	28.30810  	-1.18512  	0.03731  	0.33521  	0.35235  	-3.02442  	0.01426  	-0.08583  	-64.46460  	-1.31401  	103.99270  	98.93240  	-20530.18971  	-4209.94632  	0.00456  	0.00002  	0.00405  	0.00472  	0.00552  	0.00000  	0.00000  
25.76145  	33.39315  	5.10327  	5.36843  	28.31484  	-1.18512  	0.03729  	0.32836  	0.34581  	-3.02442  	0.01620  	-0.08572  	-64.39829  	-1.31449  	102.06291  	96.91320  	-20532.00153  	-4210.00865  	0.00455  	0.00003  	0.00405  	0.00472  	0.00549  	0.00000  	0.00000  
26.76120  	33.39428  	5.10317  	5.36932  	28.31908  	-1.18512  	0.03783  	0.32287  	0.33709  	-3.02442  	0.01649  	-0.08566  	-64.35878  	-1.31943  	99.48734  	95.29003  	-20533.17942  	-4210.05553  	0.00454  	0.00003  	0.00405  	0.00473  	0.00546  	0.00000  	0.00000  
27.76149  	33.39527  	5.10359  	5.36999  	28.32223  	-1.18512  	0.03643  	0.31647  	0.32463  	-3.02442  	0.01071  	-0.08586  	-64.33138  	-1.32063  	95.81197  	93.40122  	-20534.08810  	-4210.12085  	0.00452  	0.00002  	0.00403  	0.00470  	0.00543  	0.00000  	0.00000  
28.76188  	33.39623  	5.10416  	5.36992  	28.32299  	-1.18512  	0.03632  	0.30936  	0.32715  	-3.02442  	0.01314  	-0.08577  	-64.33391  	-1.31747  	96.55328  	91.30397  	-20534.46834  	-4210.15115  	0.00452  	0.00002  	0.00404  	0.00470  	0.00540  	0.00000  	0.00000  
29.76547  	33.39634  	5.10469  	5.36962  	28.32186  	-1.18512  	0.03524  	0.30724  	0.31696  	-3.02442  	0.01506  	-0.08578  	-64.34966  	-1.31333  	93.54679  	90.67948  	-20534.24332  	-4210.16494  	0.00451  	0.00002  	0.00405  	0.00468  	0.00539  	0.00000  	0.00000  
30.76730  	33.39561  	5.10490  	5.36978  	28.31921  	-1.18512  	0.03650  	0.30164  	0.31173  	-3.02442  	0.01466  	-0.08571  	-64.37406  	-1.31308  	92.00293  	89.02526  	-20533.50120  	-4210.18733  	0.00450  	0.00003  	0.00405  	0.00470  	0.00536  	0.00000  	0.00000  
31.76702  	33.39637  	5.10447  	5.37087  	28.31442  	-1.18512  	0.03699  	0.29338  	0.31248  	-3.02442  	0.01398  	-0.08576  	-64.44437  	-1.32061  	92.22486  	86.58698  	-20532.61384  	-4210.22664  	0.00450  	0.00002  	0.00404  	0.00471  	0.00533  	0.00000  	0.00000  
32.76841  	33.39671  	5.10516  	5.36933  	28.30706  	-1.18512  	0.03488  	0.29348  	0.30808  	-3.02442  	0.01798  	-0.08571  	-64.54204  	-1.30958  	90.92561  	86.61658  	-20531.07532  	-4210.17596  	0.00449  	0.00003  	0.00406  	0.00467  	0.00533  	0.00000  	0.00000  
33.76927  	33.39646  	5.10476  	5.36863  	28.29925  	-1.18512  	0.03542  	0.28758  	0.29595  	-3.02442  	0.01524  	-0.08574  	-64.63797  	-1.30810  	87.34555  	84.87626  	-20529.30348  	-4210.10980  	0.00447  	0.00002  	0.00405  	0.00468  	0.00530  	0.00000  	0.00000  
34.77008  	33.39519  	5.10465  	5.36820  	28.28940  	-1.18512  	0.03557  	0.28939  	0.29988  	-3.02442  	0.01347  	-0.08586  	-64.74669  	-1.30649  	88.50749  	85.41109  	-20526.86303  	-4210.07680  	0.00448  	0.00002  	0.00404  	0.00468  	0.00531  	0.00000  	0.00000  
35.77165  	33.39484  	5.10467  	5.36691  	28.27831  	-1.18512  	0.03327  	0.29139  	0.30384  	-3.02442  	0.01321  	-0.08580  	-64.88293  	-1.30000  	89.67432  	86.00165  	-20524.35177  	-4210.00140  	0.00449  	0.00002  	0.00404  	0.00464  	0.00532  	0.00000  	0.00000  
36.77104  	33.39471  	5.10409  	5.36549  	28.26686  	-1.18512  	0.03552  	0.29187  	0.29864  	-3.02442  	0.01330  	-0.08573  	-65.02653  	-1.29584  	88.14005  	86.14081  	-20521.80615  	-4209.88061  	0.00448  	0.00003  	0.00404  	0.00468  	0.00532  	0.00000  	0.00000  
37.77166  	33.39574  	5.10453  	5.36490  	28.25637  	-1.18512  	0.03513  	0.29855  	0.31128  	-3.02442  	0.01535  	-0.08568  	-65.17265  	-1.29075  	91.87191  	88.11276  	-20519.73084  	-4209.87180  	0.00450  	0.00003  	0.00405  	0.00467  	0.00535  	0.00000  	0.00000  
38.77418  	33.39535  	5.10356  	5.36453  	28.24708  	-1.18512  	0.03395  	0.29720  	0.30978  	-3.02442  	0.01441  	-0.08576  	-65.28543  	-1.29372  	91.42674  	87.71500  	-20517.60523  	-4209.79186  	0.00450  	0.00002  	0.00405  	0.00465  	0.00534  	0.00000  	0.00000  
39.77536  	33.39575  	5.10345  	5.36425  	28.23811  	-1.18512  	0.03606  	0.30102  	0.30556  	-3.02442  	0.01426  	-0.08573  	-65.40434  	-1.29288  	90.18270  	88.84288  	-20515.72470  	-4209.76851  	0.00449  	0.00003  	0.00405  	0.00469  	0.00536  	0.00000  	0.00000  
40.77518  	33.39413  	5.10328  	5.36503  	28.22904  	-1.18512  	0.03548  	0.30483  	0.31618  	-3.02442  	0.01465  	-0.08581  	-65.49868  	-1.29755  	93.31812  	89.96691  	-20513.37639  	-4209.80477  	0.00451  	0.00002  	0.00405  	0.00468  	0.00538  	0.00000  	0.00000  
41.77565  	33.39328  	5.10376  	5.36503  	28.22336  	-1.18512  	0.03615  	0.30367  	0.31610  	-3.02442  	0.01552  	-0.08572  	-65.56002  	-1.29523  	93.29338  	89.62593  	-20511.94218  	-4209.83354  	0.00451  	0.00003  	0.00405  	0.00469  	0.00537  	0.00000  	0.00000  
42.77600  	33.39225  	5.10347  	5.36530  	28.21929  	-1.18512  	0.03527  	0.30644  	0.31498  	-3.02442  	0.01472  	-0.08573  	-65.59850  	-1.29796  	92.96146  	90.44103  	-20510.82429  	-4209.83205  	0.00450  	0.00003  	0.00405  	0.00468  	0.00539  	0.00000  	0.00000  
43.77772  	33.39108  	5.10378  	5.36579  	28.21434  	-1.18512  	0.03591  	0.30560  	0.32807  	-3.02442  	0.01454  	-0.08568  	-65.64652  	-1.29889  	96.82475  	90.19355  	-20509.47858  	-4209.88045  	0.00452  	0.00003  	0.00405  	0.00469  	0.00538  	0.00000  	0.00000  
44.77774  	33.39025  	5.10392  	5.36647  	28.21141  	-1.18512  	0.03255  	0.31089  	0.32151  	-3.02442  	0.01463  	-0.08567  	-65.67314  	-1.30153  	94.88993  	91.75715  	-20508.65433  	-4209.92916  	0.00451  	0.00003  	0.00405  	0.00463  	0.00541  	0.00000  	0.00000  
45.77750  	33.38891  	5.10443  	5.36732  	28.21085  	-1.18512  	0.03604  	0.31148  	0.32923  	-3.02442  	0.01713  	-0.08577  	-65.66323  	-1.30320  	97.16898  	91.93065  	-20508.23799  	-4210.01114  	0.00453  	0.00002  	0.00405  	0.00469  	0.00541  	0.00000  	0.00000  
46.77681  	33.38743  	5.10527  	5.36747  	28.20932  	-1.18512  	0.03600  	0.31327  	0.33421  	-3.02442  	0.01264  	-0.08582  	-65.66387  	-1.29982  	98.63759  	92.45747  	-20507.57742  	-4210.07079  	0.00453  	0.00002  	0.00404  	0.00469  	0.00542  	0.00000  	0.00000  
47.77946  	33.38564  	5.10508  	5.36860  	28.20866  	-1.18512  	0.03541  	0.31604  	0.33111  	-3.02442  	0.01372  	-0.08571  	-65.64948  	-1.30636  	97.72398  	93.27545  	-20507.03826  	-4210.12641  	0.00453  	0.00003  	0.00404  	0.00468  	0.00543  	0.00000  	0.00000  
48.77992  	33.38297  	5.10634  	5.36843  	28.20974  	-1.18512  	0.03445  	0.31576  	0.32982  	-3.02442  	0.01596  	-0.08575  	-65.60186  	-1.29927  	97.34384  	93.19245  	-20506.68872  	-4210.19247  	0.00453  	0.00002  	0.00405  	0.00466  	0.00543  	0.00000  	0.00000  
49.78032  	33.38090  	5.10711  	5.36970  	28.21014  	-1.18512  	0.03388  	0.31830  	0.33248  	-3.02442  	0.01263  	-0.08574  	-65.57046  	-1.30177  	98.12803  	93.94163  	-20506.32309  	-4210.31491  	0.00453  	0.00003  	0.00404  	0.00465  	0.00544  	0.00000  	0.00000  
50.78018  	33.37894  	5.10713  	5.36978  	28.21128  	-1.18512  	0.03712  	0.31963  	0.33134  	-3.02442  	0.01558  	-0.08560  	-65.53121  	-1.30204  	97.79059  	94.33662  	-20506.14376  	-4210.32103  	0.00453  	0.00003  	0.00405  	0.00471  	0.00545  	0.00000  	0.00000  
51.78159  	33.37651  	5.10679  	5.36955  	28.21444  	-1.18512  	0.03782  	0.32066  	0.34001  	-3.02442  	0.01640  	-0.08574  	-65.46029  	-1.30257  	100.34951  	94.64049  	-20506.30401  	-4210.28676  	0.00454  	0.00003  	0.00405  	0.00473  	0.00545  	0.00000  	0.00000  
52.78173  	33.37449  	5.10668  	5.36900  	28.21761  	-1.18512  	0.03794  	0.32183  	0.34095  	-3.02442  	0.01529  	-0.08571  	-65.39448  	-1.30041  	100.62757  	94.98526  	-20506.55678  	-4210.24735  	0.00455  	0.00003  	0.00405  	0.00473  	0.00546  	0.00000  	0.00000  
53.78261  	33.37265  	5.10589  	5.36911  	28.22020  	-1.18512  	0.03726  	0.32478  	0.33998  	-3.02442  	0.01507  	-0.08570  	-65.33838  	-1.30488  	100.34180  	95.85579  	-20506.72016  	-4210.20639  	0.00454  	0.00003  	0.00405  	0.00472  	0.00547  	0.00000  	0.00000  
54.78370  	33.37050  	5.10607  	5.36736  	28.22427  	-1.18512  	0.03783  	0.32642  	0.33835  	-3.02442  	0.01423  	-0.08577  	-65.25956  	-1.29529  	99.85972  	96.33800  	-20507.14315  	-4210.11240  	0.00454  	0.00002  	0.00405  	0.00473  	0.00548  	0.00000  	0.00000  
55.78374  	33.36823  	5.10586  	5.36658  	28.22661  	-1.18512  	0.03591  	0.32671  	0.34546  	-3.02442  	0.01231  	-0.08585  	-65.20107  	-1.29247  	101.95767  	96.42465  	-20507.15900  	-4210.05290  	0.00455  	0.00002  	0.00404  	0.00469  	0.00548  	0.00000  	0.00000  
56.78282  	33.36557  	5.10610  	5.36603  	28.23099  	-1.18512  	0.03501  	0.32899  	0.34151  	-3.02442  	0.01654  	-0.08557  	-65.11179  	-1.28852  	100.79163  	97.09722  	-20507.53538  	-4210.03394  	0.00455  	0.00003  	0.00405  	0.00467  	0.00549  	0.00000  	0.00000  
57.78568  	33.36318  	5.10582  	5.36656  	28.23573  	-1.18512  	0.03664  	0.33055  	0.34760  	-3.02442  	0.01501  	-0.08568  	-65.02141  	-1.29257  	102.58881  	97.55753  	-20508.04941  	-4210.04946  	0.00456  	0.00003  	0.00405  	0.00470  	0.00550  	0.00000  	0.00000  
58.78566  	33.36122  	5.10521  	5.36776  	28.24036  	-1.18512  	0.03777  	0.33127  	0.34696  	-3.02442  	0.01233  	-0.08581  	-64.93784  	-1.30158  	102.40252  	97.77005  	-20508.63769  	-4210.08417  	0.00456  	0.00002  	0.00404  	0.00473  	0.00550  	0.00000  	0.00000  
59.78556  	33.35984  	5.10518  	5.36751  	28.24355  	-1.18512  	0.03869  	0.33262  	0.34912  	-3.02442  	0.01445  	-0.08573  	-64.87983  	-1.30045  	103.04006  	98.16928  	-20509.03491  	-4210.06800  	0.00456  	0.00003  	0.00405  	0.00474  	0.00551  	0.00000  	0.00000  
60.78545  	33.35777  	5.10609  	5.36974  	28.24755  	-1.18512  	0.03631  	0.33473  	0.35174  	-3.02442  	0.01585  	-0.08566  	-64.80275  	-1.30696  	103.81154  	98.79206  	-20509.45833  	-4210.25600  	0.00456  	0.00003  	0.00405  	0.00470  	0.00552  	0.00000  	0.00000  
61.78662  	33.35624  	5.10581  	5.36955  	28.25104  	-1.18512  	0.03708  	0.33418  	0.35418  	-3.02442  	0.01571  	-0.08575  	-64.73925  	-1.30744  	104.53316  	98.62809  	-20509.88942  	-4210.22824  	0.00457  	0.00002  	0.00405  	0.00471  	0.00551  	0.00000  	0.00000  
62.78638  	33.35493  	5.10661  	5.37054  	28.25625  	-1.18512  	0.03793  	0.33563  	0.36167  	-3.02442  	0.01335  	-0.08568  	-64.65650  	-1.30840  	106.74369  	99.05619  	-20510.74477  	-4210.33484  	0.00458  	0.00003  	0.00404  	0.00473  	0.00552  	0.00000  	0.00000  
63.78731  	33.35292  	5.10693  	5.37211  	28.26100  	-1.18512  	0.03685  	0.33800  	0.35725  	-3.02442  	0.01424  	-0.08566  	-64.57079  	-1.31461  	105.43819  	99.75618  	-20511.34738  	-4210.44876  	0.00457  	0.00003  	0.00405  	0.00471  	0.00553  	0.00000  	0.00000  
64.78692  	33.35011  	5.10730  	5.37211  	28.26572  	-1.18512  	0.03855  	0.33650  	0.35413  	-3.02442  	0.01532  	-0.08577  	-64.47528  	-1.31275  	104.51790  	99.31451  	-20511.76510  	-4210.47046  	0.00457  	0.00002  	0.00405  	0.00474  	0.00553  	0.00000  	0.00000  
65.78724  	33.34862  	5.10742  	5.37215  	28.26974  	-1.18512  	0.03763  	0.33981  	0.36176  	-3.02442  	0.01244  	-0.08570  	-64.40542  	-1.31234  	106.76994  	100.29142  	-20512.31961  	-4210.47991  	0.00458  	0.00003  	0.00404  	0.00472  	0.00554  	0.00000  	0.00000  
66.78773  	33.34755  	5.10829  	5.37252  	28.27375  	-1.18512  	0.03989  	0.34002  	0.35911  	-3.02442  	0.01474  	-0.08570  	-64.34095  	-1.30987  	105.98771  	100.35247  	-20512.96658  	-4210.55445  	0.00457  	0.00003  	0.00405  	0.00477  	0.00554  	0.00000  	0.00000  
67.78724  	33.34625  	5.10802  	5.37399  	28.27829  	-1.18512  	0.03914  	0.33796  	0.35655  	-3.02442  	0.01283  	-0.08571  	-64.26684  	-1.31851  	105.23215  	99.74614  	-20513.67719  	-4210.62655  	0.00457  	0.00003  	0.00404  	0.00475  	0.00553  	0.00000  	0.00000  
68.78712  	33.34497  	5.10764  	5.37490  	28.28358  	-1.18512  	0.03739  	0.33943  	0.35661  	-3.02442  	0.01484  	-0.08585  	-64.18349  	-1.32492  	105.24802  	100.17809  	-20514.55664  	-4210.65846  	0.00457  	0.00002  	0.00405  	0.00472  	0.00554  	0.00000  	0.00000  
69.78761  	33.34400  	5.10787  	5.37399  	28.28727  	-1.18512  	0.03753  	0.33486  	0.34350  	-3.02442  	0.01456  	-0.08573  	-64.12440  	-1.31921  	101.38139  	98.82996  	-20515.15446  	-4210.61753  	0.00455  	0.00003  	0.00405  	0.00472  	0.00552  	0.00000  	0.00000  
70.78835  	33.34249  	5.10930  	5.37392  	28.29107  	-1.18512  	0.03919  	0.32397  	0.34140  	-3.02442  	0.01668  	-0.08573  	-64.05707  	-1.31183  	100.75923  	95.61679  	-20515.65741  	-4210.69914  	0.00455  	0.00003  	0.00405  	0.00475  	0.00547  	0.00000  	0.00000  
71.78942  	33.34015  	5.10866  	5.37438  	28.29311  	-1.18512  	0.03771  	0.31861  	0.34140  	-3.02442  	0.01514  	-0.08571  	-64.00160  	-1.31727  	100.76014  	94.03455  	-20515.59171  	-4210.68853  	0.00455  	0.00003  	0.00405  	0.00472  	0.00544  	0.00000  	0.00000  
72.78977  	33.33828  	5.10879  	5.37333  	28.29296  	-1.18512  	0.03388  	0.31553  	0.33552  	-3.02442  	0.01498  	-0.08577  	-63.97984  	-1.31138  	99.02468  	93.12427  	-20515.14805  	-4210.63336  	0.00454  	0.00002  	0.00405  	0.00465  	0.00543  	0.00000  	0.00000  
73.79072  	33.33660  	5.10841  	5.37284  	28.29313  	-1.18512  	0.04035  	0.30797  	0.32722  	-3.02442  	0.01643  	-0.08575  	-63.95638  	-1.31083  	96.57583  	90.89306  	-20514.81639  	-4210.58120  	0.00452  	0.00002  	0.00405  	0.00477  	0.00539  	0.00000  	0.00000  
74.79010  	33.33481  	5.10856  	5.37267  	28.28996  	-1.18512  	0.03401  	0.30495  	0.32338  	-3.02442  	0.01321  	-0.08582  	-63.97388  	-1.30925  	95.44299  	90.00180  	-20513.72901  	-4210.58016  	0.00452  	0.00002  	0.00404  	0.00465  	0.00538  	0.00000  	0.00000  
75.79069  	33.33281  	5.10947  	5.37163  	28.28607  	-1.18512  	0.03202  	0.29978  	0.30688  	-3.02442  	0.01482  	-0.08573  	-63.99782  	-1.29963  	90.57111  	88.47604  	-20512.43575  	-4210.57200  	0.00449  	0.00003  	0.00405  	0.00461  	0.00536  	0.00000  	0.00000  
76.79203  	33.33106  	5.10902  	5.37021  	28.27833  	-1.18512  	0.03549  	0.29320  	0.30989  	-3.02442  	0.01727  	-0.08567  	-64.07374  	-1.29478  	91.46125  	86.53549  	-20510.35030  	-4210.46012  	0.00450  	0.00003  	0.00406  	0.00468  	0.00533  	0.00000  	0.00000  
77.79184  	33.33113  	5.10902  	5.36902  	28.27089  	-1.18512  	0.03368  	0.29151  	0.30590  	-3.02442  	0.01535  	-0.08571  	-64.16907  	-1.28889  	90.28282  	86.03482  	-20508.73485  	-4210.38853  	0.00449  	0.00003  	0.00405  	0.00465  	0.00532  	0.00000  	0.00000  
78.79322  	33.33002  	5.10817  	5.37007  	28.26087  	-1.18512  	0.03315  	0.28892  	0.29935  	-3.02442  	0.01589  	-0.08570  	-64.28201  	-1.29835  	88.34863  	85.27140  	-20506.29008  	-4210.40073  	0.00448  	0.00003  	0.00405  	0.00464  	0.00531  	0.00000  	0.00000  
79.79427  	33.32828  	5.10722  	5.36918  	28.25056  	-1.18512  	0.03585  	0.29399  	0.30306  	-3.02442  	0.01191  	-0.08562  	-64.39076  	-1.29862  	89.44437  	86.76833  	-20503.64484  	-4210.29021  	0.00448  	0.00003  	0.00404  	0.00469  	0.00533  	0.00000  	0.00000  
80.79527  	33.32804  	5.10770  	5.36759  	28.23928  	-1.18512  	0.03453  	0.29612  	0.31784  	-3.02442  	0.01414  	-0.08577  	-64.53065  	-1.28839  	93.80599  	87.39595  	-20501.11757  	-4210.22335  	0.00451  	0.00002  	0.00405  	0.00466  	0.00534  	0.00000  	0.00000  
81.79727  	33.32797  	5.10726  	5.36673  	28.22826  	-1.18512  	0.03485  	0.29623  	0.30347  	-3.02442  	0.01624  	-0.08571  	-64.66967  	-1.28627  	89.56688  	87.42779  	-20498.68229  	-4210.14567  	0.00449  	0.00003  	0.00405  	0.00467  	0.00534  	0.00000  	0.00000  
82.79825  	33.32803  	5.10727  	5.36736  	28.21916  	-1.18512  	0.03683  	0.29825  	0.30441  	-3.02442  	0.01473  	-0.08578  	-64.78568  	-1.28932  	89.84335  	88.02522  	-20496.69760  	-4210.18380  	0.00449  	0.00002  	0.00405  	0.00471  	0.00535  	0.00000  	0.00000  
83.79824  	33.32802  	5.10667  	5.36751  	28.20987  	-1.18512  	0.03698  	0.30001  	0.32105  	-3.02442  	0.01609  	-0.08578  	-64.90339  	-1.29308  	94.75566  	88.54534  	-20494.65676  	-4210.15731  	0.00451  	0.00002  	0.00405  	0.00471  	0.00536  	0.00000  	0.00000  
84.79819  	33.32750  	5.10575  	5.36686  	28.20254  	-1.18512  	0.03621  	0.30349  	0.31316  	-3.02442  	0.01541  	-0.08580  	-64.98976  	-1.29441  	92.42568  	89.57100  	-20492.93351  	-4210.06230  	0.00450  	0.00002  	0.00405  	0.00470  	0.00537  	0.00000  	0.00000  
85.79843  	33.32713  	5.10596  	5.36656  	28.19565  	-1.18512  	0.03404  	0.30401  	0.32630  	-3.02442  	0.01752  	-0.08570  	-65.07248  	-1.29186  	96.30255  	89.72552  	-20491.33968  	-4210.05757  	0.00452  	0.00003  	0.00406  	0.00465  	0.00538  	0.00000  	0.00000  
86.79816  	33.32665  	5.10545  	5.36631  	28.19080  	-1.18512  	0.03549  	0.30713  	0.32015  	-3.02442  	0.01242  	-0.08580  	-65.12793  	-1.29317  	94.48822  	90.64530  	-20490.17010  	-4210.01139  	0.00451  	0.00002  	0.00404  	0.00468  	0.00539  	0.00000  	0.00000  
87.79867  	33.32590  	5.10542  	5.36650  	28.18667  	-1.18512  	0.03629  	0.30828  	0.32886  	-3.02442  	0.01691  	-0.08576  	-65.17080  	-1.29425  	97.05987  	90.98492  	-20489.10147  	-4210.02169  	0.00453  	0.00002  	0.00405  	0.00470  	0.00540  	0.00000  	0.00000  
88.79800  	33.32472  	5.10587  	5.36708  	28.18297  	-1.18512  	0.03641  	0.31029  	0.32271  	-3.02442  	0.01480  	-0.08577  	-65.20274  	-1.29488  	95.24484  	91.57862  	-20488.03043  	-4210.08342  	0.00452  	0.00002  	0.00405  	0.00470  	0.00540  	0.00000  	0.00000  
89.80022  	33.32344  	5.10659  	5.36781  	28.18061  	-1.18512  	0.03624  	0.31175  	0.32635  	-3.02442  	0.01284  	-0.08576  	-65.21638  	-1.29491  	96.31892  	92.00986  	-20487.22968  	-4210.17018  	0.00452  	0.00002  	0.00404  	0.00470  	0.00541  	0.00000  	0.00000  
90.80091  	33.32298  	5.10663  	5.36852  	28.17962  	-1.18512  	0.03755  	0.31345  	0.33094  	-3.02442  	0.01811  	-0.08574  	-65.22308  	-1.29825  	97.67446  	92.51191  	-20486.91145  	-4210.21492  	0.00453  	0.00002  	0.00406  	0.00472  	0.00542  	0.00000  	0.00000  
91.80321  	33.32135  	5.10598  	5.36807  	28.17897  	-1.18512  	0.03562  	0.31644  	0.33267  	-3.02442  	0.01377  	-0.08576  	-65.21071  	-1.29930  	98.18252  	93.39344  	-20486.41234  	-4210.14901  	0.00453  	0.00002  	0.00404  	0.00468  	0.00543  	0.00000  	0.00000  
92.80421  	33.32053  	5.10698  	5.36866  	28.18014  	-1.18512  	0.03587  	0.31559  	0.33283  	-3.02442  	0.01578  	-0.08577  	-65.18536  	-1.29721  	98.23130  	93.14341  	-20486.48811  	-4210.24432  	0.00453  	0.00002  	0.00405  	0.00469  	0.00543  	0.00000  	0.00000  
93.80526  	33.31918  	5.10680  	5.36949  	28.18170  	-1.18512  	0.03676  	0.32003  	0.33822  	-3.02442  	0.01557  	-0.08577  	-65.14853  	-1.30226  	99.82052  	94.45207  	-20486.53449  	-4210.28362  	0.00454  	0.00002  	0.00405  	0.00471  	0.00545  	0.00000  	0.00000  
94.80522  	33.31730  	5.10654  	5.36954  	28.18251  	-1.18512  	0.03750  	0.31984  	0.33318  	-3.02442  	0.01262  	-0.08573  	-65.11435  	-1.30381  	98.33416  	94.39807  	-20486.29979  	-4210.27088  	0.00453  	0.00003  	0.00404  	0.00472  	0.00545  	0.00000  	0.00000  
95.80522  	33.31551  	5.10722  	5.36829  	28.18476  	-1.18512  	0.03588  	0.32111  	0.33556  	-3.02442  	0.01356  	-0.08571  	-65.06313  	-1.29421  	99.03563  	94.77099  	-20486.40146  	-4210.23725  	0.00454  	0.00003  	0.00404  	0.00469  	0.00545  	0.00000  	0.00000  
96.80542  	33.31453  	5.10601  	5.36765  	28.18826  	-1.18512  	0.03692  	0.32455  	0.33329  	-3.02442  	0.01699  	-0.08580  	-65.00648  	-1.29705  	98.36807  	95.78628  	-20486.95427  	-4210.12578  	0.00453  	0.00002  	0.00405  	0.00471  	0.00547  	0.00000  	0.00000  
97.80671  	33.31279  	5.10611  	5.36694  	28.19042  	-1.18512  	0.03693  	0.32511  	0.33898  	-3.02442  	0.01547  	-0.08575  	-64.95697  	-1.29303  	100.04489  	95.95349  	-20487.04693  	-4210.08956  	0.00454  	0.00002  	0.00405  	0.00471  	0.00547  	0.00000  	0.00000  
98.80636  	33.31201  	5.10505  	5.36657  	28.19496  	-1.18512  	0.03574  	0.32520  	0.34518  	-3.02442  	0.01264  	-0.08566  	-64.88963  	-1.29646  	101.87736  	95.98021  	-20487.87093  	-4210.00369  	0.00455  	0.00003  	0.00404  	0.00469  	0.00547  	0.00000  	0.00000  
99.80649  	33.31045  	5.10578  	5.36654  	28.19753  	-1.18512  	0.03734  	0.32837  	0.34256  	-3.02442  	0.01466  	-0.08565  	-64.83712  	-1.29267  	101.10198  	96.91604  	-20488.09444  	-4210.04529  	0.00455  	0.00003  	0.00405  	0.00472  	0.00549  	0.00000  	0.00000  
100.80678  	33.30946  	5.10608  	5.36641  	28.20207  	-1.18512  	0.03738  	0.32793  	0.34718  	-3.02442  	0.01194  	-0.08576  	-64.76699  	-1.29055  	102.46568  	96.78383  	-20488.87148  	-4210.05585  	0.00456  	0.00002  	0.00404  	0.00472  	0.00549  	0.00000  	0.00000  
101.80765  	33.30692  	5.10637  	5.36720  	28.20613  	-1.18512  	0.03901  	0.32883  	0.34519  	-3.02442  	0.01517  	-0.08578  	-64.68329  	-1.29300  	101.87872  	97.05143  	-20489.20720  	-4210.12058  	0.00455  	0.00002  	0.00405  	0.00475  	0.00549  	0.00000  	0.00000  
102.80718  	33.30559  	5.10605  	5.36874  	28.20961  	-1.18512  	0.03762  	0.33207  	0.35388  	-3.02442  	0.01384  	-0.08564  	-64.62224  	-1.30222  	104.44458  	98.00712  	-20489.67736  	-4210.19361  	0.00457  	0.00003  	0.00404  	0.00472  	0.00551  	0.00000  	0.00000  
103.80733  	33.30388  	5.10616  	5.36942  	28.21422  	-1.18512  	0.03909  	0.33246  	0.35136  	-3.02442  	0.01438  	-0.08576  	-64.54214  	-1.30507  	103.69922  	98.12257  	-20490.31176  	-4210.24037  	0.00456  	0.00002  	0.00405  	0.00475  	0.00551  	0.00000  	0.00000  
104.80776  	33.30255  	5.10678  	5.36980  	28.21914  	-1.18512  	0.03674  	0.33440  	0.35072  	-3.02442  	0.01213  	-0.08577  	-64.46289  	-1.30388  	103.51166  	98.69586  	-20491.10185  	-4210.30107  	0.00456  	0.00002  	0.00404  	0.00471  	0.00552  	0.00000  	0.00000  
