Tempo	T_cold_in(C)	T_hot_in(C)	T_hot_out(C)	T_cold_out(C)	mdot_cold(kg/s)	mdot_air(kg/s)	Diferencial_cold(bar)	Diferencial_hot(bar)	mdot_hot(kg/s)	ABS_cold(bar)	ABS_hot(bar)	q_cold(kW)	q_hot(kW)	ASFASYFY	Tau_cold_haste	Re_hot	Re_cold	U_global	PSIG_cold(bar)	R_fouling	PSIG_hot(bar)	PSID_hot(bar)	m_dot_hot	PSID_cold(bar)	m_dot_cold	
2.75064	22.28643	49.35996	49.06895	27.00887	-1.18512	0.04716	1.30172	1.33028	-3.02442	0.06302	-0.08568	-59.72152	-1.44267	392.61682	384.18734	-17866.60669	-11339.06269	0.00613	0.00003	0.0042	0.00491	0.00997	0	0		
3.75196	22.28982	49.35974	49.06916	27.00572	-1.18512	0.04727	1.30309	1.33194	-3.02442	0.06259	-0.08562	-59.63884	-1.44054	393.10866	384.59196	-17866.65488	-11339.06031	0.00613	0.00003	0.0042	0.00491	0.00998	0	0		
4.75528	22.29258	49.35853	49.06823	27.00405	-1.18512	0.0493	1.30307	1.33372	-3.02442	0.06147	-0.08571	-59.58275	-1.43914	393.63288	384.58807	-17866.88342	-11338.86187	0.00613	0.00003	0.0042	0.00495	0.00998	0	0		
5.75859	22.29594	49.35892	49.06844	27.00091	-1.18512	0.04811	1.30505	1.3353	-3.02442	0.06082	-0.08569	-59.50049	-1.44008	394.10021	385.17233	-17866.92999	-11338.91768	0.00614	0.00003	0.00419	0.00492	0.00999	0	0		
6.75991	22.29929	49.35867	49.0674	26.99938	-1.18512	0.04625	1.3057	1.33736	-3.02442	0.06129	-0.08563	-59.43898	-1.44394	394.70769	385.36206	-17867.31095	-11338.79771	0.00614	0.00003	0.0042	0.00489	0.00999	0	0		
7.76323	22.30284	49.35881	49.06749	26.99594	-1.18512	0.04691	1.30616	1.33637	-3.02442	0.06066	-0.08568	-59.3505	-1.44422	394.41418	385.49724	-17867.33367	-11338.8192	0.00614	0.00003	0.00419	0.0049	0.00999	0	0		
8.76655	22.30627	49.35886	49.06749	26.99493	-1.18512	0.04717	1.3078	1.33663	-3.02442	0.06253	-0.08562	-59.29421	-1.44446	394.49215	385.98314	-17867.83984	-11338.82414	0.00614	0.00003	0.0042	0.00491	0.01	0	0		
9.76787	22.30897	49.35834	49.06786	26.99333	-1.18512	0.04775	1.30782	1.33829	-3.02442	0.05949	-0.08565	-59.23994	-1.44003	394.98038	385.98959	-17868.07022	-11338.81021	0.00614	0.00003	0.00419	0.00492	0.01	0	0		
10.77119	22.31358	49.35889	49.06803	26.99114	-1.18512	0.04999	1.30853	1.34198	-3.02442	0.06196	-0.08568	-59.15393	-1.44197	396.07151	386.19798	-17868.57627	-11338.87656	0.00615	0.00003	0.0042	0.00496	0.01	0	0		
11.7745	22.31743	49.35922	49.06775	26.99005	-1.18512	0.04726	1.30973	1.33983	-3.02442	0.06315	-0.08572	-59.09144	-1.44494	395.43501	386.55306	-17869.15316	-11338.88085	0.00614	0.00003	0.0042	0.00491	0.01001	0	0		
12.77585	22.3208	49.35972	49.06893	26.98807	-1.18512	0.04817	1.31018	1.33781	-3.02442	0.06032	-0.08567	-59.02387	-1.44158	394.83916	386.68581	-17869.44429	-11339.038	0.00614	0.00003	0.00419	0.00492	0.01001	0	0		
13.77914	22.32506	49.36012	49.06819	26.98774	-1.18512	0.04929	1.31104	1.33763	-3.02442	0.06203	-0.08567	-58.96572	-1.44726	394.7852	386.93909	-17870.266	-11339.00599	0.00614	0.00003	0.0042	0.00495	0.01002	0	0		
14.78248	22.32959	49.36028	49.0683	26.98686	-1.18512	0.04886	1.31151	1.34359	-3.02442	0.0612	-0.08571	-58.89741	-1.44751	396.54645	387.07861	-17871.03025	-11339.0316	0.00615	0.00003	0.0042	0.00494	0.01002	0	0		
15.78278	22.33363	49.36182	49.06943	26.98504	-1.18512	0.04704	1.31253	1.34503	-3.02442	0.06328	-0.08565	-58.82317	-1.44951	396.96977	387.37807	-17871.49449	-11339.27949	0.00615	0.00003	0.0042	0.0049	0.01002	0	0		
16.7851	22.33729	49.36147	49.06949	26.98421	-1.18512	0.04682	1.31023	1.34016	-3.02442	0.06166	-0.08572	-58.76646	-1.44748	395.53373	386.69991	-17872.0884	-11339.25348	0.00614	0.00003	0.0042	0.0049	0.01001	0	0		
17.78841	22.341	49.36344	49.07012	26.98266	-1.18512	0.04754	1.3092	1.34114	-3.02442	0.06037	-0.08571	-58.69993	-1.45418	395.8233	386.39709	-17872.53811	-11339.49496	0.00615	0.00003	0.00419	0.00491	0.01001	0	0		
18.78877	22.34524	49.36433	49.0703	26.98175	-1.18512	0.04687	1.30634	1.33675	-3.02442	0.06068	-0.08569	-58.63479	-1.45764	394.52679	385.55217	-17873.23572	-11339.59454	0.00614	0.00003	0.00419	0.0049	0.00999	0	0		
19.79205	22.34903	49.36548	49.07128	26.9816	-1.18512	0.0477	1.30744	1.33786	-3.02442	0.06335	-0.08568	-58.585	-1.45852	394.85366	385.87778	-17873.99651	-11339.79264	0.00614	0.00003	0.0042	0.00492	0.01	0	0		
20.79537	22.35235	49.36713	49.07163	26.98218	-1.18512	0.04885	1.30901	1.33762	-3.02442	0.0614	-0.08564	-58.55032	-1.46494	394.78505	386.33884	-17874.8126	-11339.97911	0.00614	0.00003	0.0042	0.00494	0.01001	0	0		
21.79669	22.35576	49.36802	49.07329	26.98251	-1.18512	0.0487	1.30981	1.34087	-3.02442	0.06165	-0.08562	-58.51147	-1.46114	395.74244	386.57695	-17875.59483	-11340.21687	0.00615	0.00003	0.0042	0.00494	0.01001	0	0		
22.79901	22.36114	49.36933	49.07476	26.98479	-1.18512	0.04816	1.31074	1.34154	-3.02442	0.06116	-0.08567	-58.47219	-1.46035	395.94185	386.84897	-17877.19676	-11340.4758	0.00615	0.00003	0.0042	0.00492	0.01001	0	0		
23.80233	22.36673	49.36958	49.07726	26.98596	-1.18512	0.04773	1.31169	1.34337	-3.02442	0.06214	-0.08566	-58.41629	-1.44917	396.48138	387.1301	-17878.61189	-11340.73124	0.00615	0.00003	0.0042	0.00492	0.01002	0	0		
24.80465	22.3707	49.37188	49.07835	26.98769	-1.18512	0.04708	1.3125	1.34242	-3.02442	0.0629	-0.08569	-58.38787	-1.45519	396.20049	387.36936	-17879.80501	-11341.04679	0.00615	0.00003	0.0042	0.0049	0.01002	0	0		
25.80597	22.37532	49.37228	49.07824	26.98818	-1.18512	0.04781	1.31354	1.34592	-3.02442	0.06315	-0.08571	-58.3358	-1.4577	397.23324	387.67701	-17880.8752	-11341.07418	0.00615	0.00003	0.0042	0.00492	0.01003	0	0		
26.80928	22.38042	49.37399	49.07969	26.98907	-1.18512	0.04676	1.31416	1.34517	-3.02442	0.06183	-0.08562	-58.28251	-1.459	397.01149	387.8604	-17882.12666	-11341.36818	0.00615	0.00003	0.0042	0.0049	0.01003	0	0		
27.8126	22.38528	49.37563	49.08146	26.99113	-1.18512	0.0473	1.31484	1.34502	-3.02442	0.06113	-0.08569	-58.2472	-1.45835	396.96666	388.06139	-17883.57576	-11341.68483	0.00615	0.00003	0.0042	0.00491	0.01003	0	0		
28.81392	22.39088	49.37693	49.08407	26.99251	-1.18512	0.04882	1.31589	1.34757	-3.02442	0.06179	-0.08568	-58.19361	-1.45185	397.72036	388.3699	-17885.03672	-11342.04935	0.00616	0.00003	0.0042	0.00494	0.01004	0	0		
29.81724	22.39576	49.3785	49.08501	26.99396	-1.18512	0.04783	1.31536	1.34865	-3.02442	0.06305	-0.0857	-58.15029	-1.45495	398.04046	388.2127	-17886.36143	-11342.28336	0.00616	0.00003	0.0042	0.00492	0.01004	0	0		
30.82055	22.4003	49.3813	49.08646	26.99463	-1.18512	0.0485	1.31764	1.34671	-3.02442	0.0621	-0.08565	-58.10144	-1.46168	397.46703	388.88631	-17887.45169	-11342.67948	0.00615	0.00003	0.0042	0.00493	0.01005	0	0		
31.82187	22.40596	49.38315	49.08838	26.99691	-1.18512	0.04958	1.31787	1.34784	-3.02442	0.06211	-0.08572	-58.05869	-1.4613	397.79928	388.95544	-17889.11235	-11343.03035	0.00616	0.00003	0.0042	0.00495	0.01005	0	0		
32.82522	22.41119	49.38566	49.09114	26.99842	-1.18512	0.0496	1.31796	1.34686	-3.02442	0.06246	-0.08571	-58.01162	-1.46006	397.51027	388.98003	-17890.5237	-11343.52106	0.00615	0.00003	0.0042	0.00495	0.01005	0	0		
33.82853	22.41632	49.38694	49.09342	26.99969	-1.18512	0.04851	1.31926	1.35304	-3.02442	0.06189	-0.08566	-57.96286	-1.45513	399.33598	389.36559	-17891.86438	-11343.85269	0.00616	0.00003	0.0042	0.00493	0.01005	0	0		
34.82983	22.42197	49.3882	49.09495	27.00117	-1.18512	0.04731	1.31824	1.35246	-3.02442	0.06312	-0.08566	-57.91011	-1.45379	399.16347	389.06252	-17893.35635	-11344.1124	0.00616	0.00003	0.0042	0.00491	0.01005	0	0		
35.83317	22.42886	49.38973	49.09692	27.00276	-1.18512	0.04782	1.31969	1.35064	-3.02442	0.05964	-0.08568	-57.84303	-1.45163	398.62605	389.49304	-17895.13182	-11344.43785	0.00616	0.00003	0.00419	0.00492	0.01006	0	0		
36.83646	22.434	49.3923	49.09858	27.00392	-1.18512	0.04692	1.32101	1.352	-3.02442	0.06166	-0.08572	-57.79268	-1.45609	399.02643	389.88116	-17896.4493	-11344.83197	0.00616	0.00003	0.0042	0.0049	0.01006	0	0		
37.83778	22.43885	49.39461	49.09989	27.0059	-1.18512	0.04904	1.31998	1.3528	-3.02442	0.06102	-0.08564	-57.75646	-1.4611	399.26347	389.5771	-17897.87971	-11345.16853	0.00616	0.00003	0.0042	0.00494	0.01006	0	0		
38.8411	22.445	49.39742	49.10177	27.0071	-1.18512	0.05102	1.32183	1.35175	-3.02442	0.06135	-0.08568	-57.69382	-1.46571	398.9535	390.12374	-17899.41972	-11345.60563	0.00616	0.00003	0.0042	0.00498	0.01007	0	0		
39.84441	22.45181	49.39875	49.10333	27.00876	-1.18512	0.04997	1.32155	1.3515	-3.02442	0.06282	-0.08572	-57.62874	-1.46455	398.88089	390.04225	-17901.1914	-11345.87496	0.00616	0.00003	0.0042	0.00496	0.01006	0	0		
40.84573	22.45709	49.4012	49.10577	27.01081	-1.18512	0.04794	1.32149	1.35141	-3.02442	0.06222	-0.08574	-57.5877	-1.46461	398.85436	390.0227	-17902.7259	-11346.3302	0.00616	0.00003	0.0042	0.00492	0.01006	0	0		
41.84905	22.46241	49.40221	49.10821	27.01308	-1.18512	0.04891	1.32029	1.35094	-3.02442	0.06282	-0.08571	-57.54927	-1.45749	398.71507	389.66846	-17904.31591	-11346.65091	0.00616	0.00003	0.0042	0.00494	0.01006	0	0		
42.85239	22.46731	49.40516	49.11045	27.01551	-1.18512	0.04799	1.31936	1.35031	-3.02442	0.0611	-0.08567	-57.51796	-1.46103	398.52769	389.39481	-17905.84868	-11347.13454	0.00616	0.00003	0.0042	0.00492	0.01005	0	0		
43.85372	22.47388	49.40776	49.1145	27.01778	-1.18512	0.04702	1.31782	1.3494	-3.02442	0.06094	-0.08563	-57.4637	-1.45383	398.25983	388.94027	-17907.701	-11347.75311	0.00616	0.00003	0.00419	0.0049	0.01005	0	0		
44.85504	22.47965	49.40952	49.11496	27.02054	-1.18512	0.04934	1.31644	1.3466	-3.02442	0.06258	-0.08568	-57.42558	-1.46026	397.4342	388.53213	-17909.48636	-11347.96056	0.00615	0.00003	0.0042	0.00495	0.01004	0	0		
45.85834	22.48563	49.41203	49.11751	27.02394	-1.18512	0.04694	1.31494	1.34757	-3.02442	0.06204	-0.08567	-57.39287	-1.46011	397.7211	388.09119	-17911.45012	-11348.43204	0.00616	0.00003	0.0042	0.0049	0.01003	0	0		
46.85968	22.49041	49.41469	49.12092	27.02734	-1.18512	0.04822	1.31598	1.34411	-3.02442	0.06157	-0.08566	-57.37546	-1.45637	396.69857	388.39718	-17913.16436	-11348.99712	0.00615	0.00003	0.0042	0.00493	0.01004	0	0		
47.861	22.49567	49.41755	49.12431	27.03368	-1.18512	0.04929	1.31471	1.34378	-3.02442	0.06174	-0.08565	-57.38905	-1.45376	396.60034	388.0231	-17915.59277	-11349.5794	0.00615	0.00003	0.0042	0.00495	0.01003	0	0		
48.86431	22.50186	49.41981	49.12795	27.03775	-1.18512	0.04853	1.31464	1.34496	-3.02442	0.06096	-0.0856	-57.36224	-1.44691	396.95041	388.00107	-17917.74111	-11350.12804	0.00615	0.00003	0.0042	0.00493	0.01003	0	0		
49.8676	22.5084	49.42183	49.13017	27.04211	-1.18512	0.05002	1.3158	1.34873	-3.02442	0.06129	-0.08571	-57.33476	-1.44588	398.06137	388.34321	-17920.02261	-11350.52327	0.00616	0.00003	0.0042	0.00496	0.01004	0	0		
50.86898	22.51421	49.42474	49.13283	27.04719	-1.18512	0.04846	1.31532	1.34532	-3.02442	0.0622	-0.08559	-57.32549	-1.44713	397.05755	388.20263	-17922.30403	-11351.04206	0.00615	0.00003	0.0042	0.00493	0.01004	0	0		
51.8723	22.52137	49.42707	49.13524	27.05181	-1.18512	0.04852	1.31582	1.34786	-3.02442	0.0617	-0.08572	-57.29342	-1.44673	397.8053	388.35023	-17924.77097	-11351.48321	0.00616	0.00003	0.0042	0.00493	0.01004	0	0		
52.87559	22.52682	49.43057	49.13712	27.05684	-1.18512	0.04814	1.31667	1.34445	-3.02442	0.05942	-0.08569	-57.28814	-1.4548	396.80073	388.60116	-17926.96747	-11351.98494	0.00615	0.00003	0.00419	0.00492	0.01004	0	0		
53.87694	22.53299	49.43319	49.13918	27.06167	-1.18512	0.04887	1.31699	1.34941	-3.02442	0.0621	-0.08571	-57.27111	-1.45755	398.26254	388.69433	-17929.27078	-11352.41991	0.00616	0.00003	0.0042	0.00494	0.01004	0	0		
54.88025	22.53951	49.43456	49.14177	27.06688	-1.18512	0.04942	1.31729	1.34669	-3.02442	0.06072	-0.08569	-57.25462	-1.45154	397.45975	388.784	-17931.72919	-11352.78912	0.00615	0.00003	0.00419	0.00495	0.01004	0	0		
55.88357	22.54754	49.43838	49.14474	27.07242	-1.18512	0.04812	1.31835	1.35059	-3.02442	0.05955	-0.08571	-57.22313	-1.45571	398.61228	389.09687	-17934.57171	-11353.42119	0.00616	0.00003	0.00419	0.00492	0.01005	0	0		
56.88389	22.55348	49.44063	49.14693	27.07706	-1.18512	0.04761	1.3182	1.35014	-3.02442	0.06227	-0.08567	-57.20664	-1.45602	398.47828	389.05266	-17936.7906	-11353.83479	0.00616	0.00003	0.0042	0.00491	0.01005	0	0		
57.88721	22.56003	49.4437	49.14952	27.08095	-1.18512	0.04972	1.3188	1.3549	-3.02442	0.06231	-0.08569	-57.17303	-1.45836	399.8845	389.22945	-17938.97608	-11354.36262	0.00617	0.00003	0.0042	0.00495	0.01005	0	0		
58.89053	22.56638	49.44662	49.15183	27.08521	-1.18512	0.0485	1.32088	1.3483	-3.02442	0.06277	-0.08569	-57.14652	-1.46142	397.93533	389.84244	-17941.19912	-11354.84939	0.00616	0.00003	0.0042	0.00493	0.01006	0	0		
59.89182	22.57449	49.44984	49.1552	27.09004	-1.18512	0.04821	1.32045	1.35012	-3.02442	0.06117	-0.08575	-57.10503	-1.46066	398.47266	389.71701	-17943.91083	-11355.46296	0.00616	0.00002	0.0042	0.00493	0.01006	0	0		
60.89416	22.58113	49.45208	49.15795	27.09355	-1.18512	0.04693	1.32095	1.35263	-3.02442	0.06128	-0.08567	-57.06545	-1.45815	399.21409	389.86258	-17946.0386	-11355.92797	0.00616	0.00003	0.0042	0.0049	0.01006	0	0		
61.89748	22.58853	49.45467	49.16221	27.09753	-1.18512	0.04748	1.32204	1.35072	-3.02442	0.06277	-0.08572	-57.02226	-1.44988	398.65071	390.18455	-17948.42248	-11356.56624	0.00616	0.00003	0.0042	0.00491	0.01007	0	0		
62.8988	22.59509	49.45732	49.16533	27.10138	-1.18512	0.04865	1.3223	1.35113	-3.02442	0.06102	-0.08568	-56.98793	-1.44755	398.77016	390.26294	-17950.6052	-11357.10368	0.00616	0.00003	0.0042	0.00493	0.01007	0	0		
63.90212	22.60321	49.46128	49.16757	27.10606	-1.18512	0.04884	1.32262	1.35388	-3.02442	0.06267	-0.08569	-56.94442	-1.45608	399.5828	390.35518	-17953.28702	-11357.68096	0.00617	0.00003	0.0042	0.00494	0.01007	0	0		
64.90544	22.60906	49.46384	49.17027	27.10963	-1.18512	0.04845	1.32294	1.35577	-3.02442	0.0622	-0.08566	-56.91566	-1.45537	400.13955	390.45034	-17955.26338	-11358.17045	0.00617	0.00003	0.0042	0.00493	0.01007	0	0		
65.90676	22.61563	49.4671	49.17282	27.11304	-1.18512	0.04794	1.32134	1.35463	-3.02442	0.06236	-0.08571	-56.8758	-1.45885	399.80495	389.97832	-17957.35419	-11358.71213	0.00617	0.00003	0.0042	0.00492	0.01006	0	0		
66.90907	22.62314	49.47023	49.17523	27.11665	-1.18512	0.04866	1.32014	1.34995	-3.02442	0.06278	-0.0857	-56.82628	-1.46249	398.42409	389.62564	-17959.6847	-11359.22851	0.00616	0.00003	0.0042	0.00493	0.01006	0	0		
67.91236	22.63115	49.47317	49.17999	27.1217	-1.18512	0.04779	1.3175	1.34561	-3.02442	0.06161	-0.08569	-56.78897	-1.45344	397.14145	388.84616	-17962.42401	-11359.94523	0.00615	0.00003	0.0042	0.00492	0.01005	0	0		
68.91272	22.63749	49.47589	49.18346	27.12631	-1.18512	0.04892	1.31805	1.3508	-3.02442	0.06259	-0.08573	-56.7671	-1.44972	398.67315	389.00738	-17964.71792	-11360.52261	0.00616	0.00003	0.0042	0.00494	0.01005	0	0		
69.91501	22.64404	49.47888	49.18446	27.13037	-1.18512	0.04982	1.3191	1.34892	-3.02442	0.06441	-0.08571	-56.73554	-1.45962	398.11881	389.3171	-17966.94202	-11360.89395	0.00616	0.00003	0.00421	0.00496	0.01005	0	0		
70.91835	22.65045	49.48183	49.18733	27.13543	-1.18512	0.05052	1.32037	1.35282	-3.02442	0.06101	-0.08568	-56.7184	-1.46001	399.26882	389.69187	-17969.34753	-11361.43598	0.00616	0.00003	0.0042	0.00497	0.01006	0	0		
71.91967	22.65773	49.48599	49.19041	27.14243	-1.18512	0.04927	1.32165	1.35661	-3.02442	0.0613	-0.08566	-56.71505	-1.46532	400.38983	390.06969	-17972.34214	-11362.10988	0.00617	0.00003	0.0042	0.00495	0.01006	0	0		
72.92099	22.66528	49.48752	49.19345	27.14773	-1.18512	0.04844	1.32259	1.35619	-3.02442	0.06257	-0.08569	-56.68657	-1.45783	400.26458	390.34913	-17975.03695	-11362.53646	0.00617	0.00003	0.0042	0.00493	0.01007	0	0		
73.92331	22.67218	49.49042	49.19612	27.15259	-1.18512	0.04711	1.32347	1.35429	-3.02442	0.06224	-0.08567	-56.6607	-1.45897	399.70398	390.60879	-17977.50423	-11363.05554	0.00617	0.00003	0.0042	0.0049	0.01007	0	0		
74.92663	22.67961	49.49315	49.19871	27.15722	-1.18512	0.04883	1.32308	1.35372	-3.02442	0.06107	-0.08565	-56.6253	-1.45967	399.53648	390.49329	-17980.03153	-11363.55077	0.00617	0.00003	0.0042	0.00494	0.01007	0	0		
75.92792	22.68846	49.49626	49.20215	27.16302	-1.18512	0.04855	1.32379	1.35523	-3.02442	0.06198	-0.08565	-56.58679	-1.45807	399.98092	390.70164	-17983.10539	-11364.16113	0.00617	0.00003	0.0042	0.00493	0.01007	0	0		
76.93124	22.69516	49.5	49.20534	27.16749	-1.18512	0.05064	1.32526	1.35595	-3.02442	0.06232	-0.08571	-56.5585	-1.46078	400.19426	391.13628	-17985.44694	-11364.80709	0.00617	0.00003	0.0042	0.00497	0.01008	0	0		
77.93458	22.70252	49.5029	49.20795	27.17309	-1.18512	0.04836	1.32543	1.35822	-3.02442	0.06415	-0.0858	-56.53634	-1.46223	400.8649	391.18554	-17988.16663	-11365.31991	0.00617	0.00002	0.00421	0.00493	0.01008	0	0		
78.9359	22.71049	49.50618	49.2125	27.17694	-1.18512	0.04857	1.32604	1.35396	-3.02442	0.06087	-0.08569	-56.48409	-1.4559	399.60644	391.36737	-17990.64595	-11366.04944	0.00617	0.00003	0.00419	0.00493	0.01008	0	0		
79.93922	22.71891	49.50965	49.21596	27.18289	-1.18512	0.04947	1.32558	1.3596	-3.02442	0.06343	-0.08565	-56.45295	-1.45597	401.27191	391.23051	-17993.66067	-11366.69433	0.00618	0.00003	0.0042	0.00495	0.01008	0	0		
80.94253	22.72577	49.51299	49.2191	27.18733	-1.18512	0.04925	1.32657	1.35855	-3.02442	0.06166	-0.08571	-56.4223	-1.45697	400.96132	391.52124	-17996.02993	-11367.2988	0.00617	0.00003	0.0042	0.00495	0.01009	0	0		
81.94386	22.73369	49.5156	49.22181	27.19124	-1.18512	0.05049	1.32724	1.35772	-3.02442	0.06126	-0.08566	-56.37168	-1.45646	400.71554	391.72015	-17998.51241	-11367.7936	0.00617	0.00003	0.0042	0.00497	0.01009	0	0		
82.94715	22.74111	49.51965	49.22543	27.19557	-1.18512	0.04896	1.32737	1.35959	-3.02442	0.06089	-0.08568	-56.33249	-1.45857	401.26733	391.75806	-18000.97808	-11368.5087	0.00618	0.00003	0.00419	0.00494	0.01009	0	0		
83.95049	22.74904	49.52288	49.22954	27.20023	-1.18512	0.04801	1.32848	1.36199	-3.02442	0.06183	-0.08567	-56.29114	-1.45424	401.97672	392.08695	-18003.61882	-11369.19249	0.00618	0.00003	0.0042	0.00492	0.0101	0	0		
84.95181	22.7573	49.52592	49.23222	27.2046	-1.18512	0.04755	1.32913	1.36025	-3.02442	0.06173	-0.08566	-56.24207	-1.45602	401.46374	392.27681	-18006.27091	-11369.7265	0.00618	0.00003	0.0042	0.00491	0.0101	0	0		
85.95413	22.76558	49.52801	49.23492	27.20968	-1.18512	0.04778	1.32974	1.35864	-3.02442	0.06131	-0.08562	-56.20146	-1.45297	400.98799	392.45668	-18009.07345	-11370.17254	0.00617	0.00003	0.0042	0.00492	0.0101	0	0		
86.95744	22.77317	49.53172	49.23835	27.21303	-1.18512	0.04794	1.32978	1.36256	-3.02442	0.06216	-0.0857	-56.14785	-1.4544	402.14472	392.47121	-18011.36899	-11370.83772	0.00618	0.00003	0.0042	0.00492	0.0101	0	0		
87.95777	22.78218	49.53591	49.2422	27.21894	-1.18512	0.04664	1.33124	1.36281	-3.02442	0.06058	-0.0857	-56.10873	-1.45605	402.21755	392.90119	-18014.50244	-11371.58713	0.00618	0.00003	0.00419	0.0049	0.01011	0	0		
88.96108	22.78935	49.53879	49.24533	27.22305	-1.18512	0.04965	1.33088	1.36604	-3.02442	0.06197	-0.08568	-56.06997	-1.45486	403.1716	392.7939	-18016.86831	-11372.14649	0.00619	0.00003	0.0042	0.00495	0.01011	0	0		
89.9644	22.79752	49.54114	49.24721	27.22766	-1.18512	0.05011	1.33183	1.36085	-3.02442	0.06141	-0.08573	-56.02493	-1.45714	401.64083	393.07575	-18019.55044	-11372.54106	0.00618	0.00003	0.0042	0.00496	0.01011	0	0		
90.96572	22.80504	49.54581	49.24969	27.23188	-1.18512	0.04716	1.33125	1.36397	-3.02442	0.06143	-0.08568	-55.98332	-1.46798	402.5607	392.90487	-18022.01574	-11373.20693	0.00618	0.00003	0.0042	0.00491	0.01011	0	0		
91.96904	22.81452	49.54873	49.25379	27.23657	-1.18512	0.0496	1.33214	1.36161	-3.02442	0.06134	-0.08565	-55.92262	-1.46217	401.86472	393.16571	-18024.99078	-11373.86074	0.00618	0.00003	0.0042	0.00495	0.01011	0	0		
92.97236	22.82231	49.55163	49.25811	27.24138	-1.18512	0.04735	1.33245	1.36247	-3.02442	0.06058	-0.08565	-55.88488	-1.45515	402.11644	393.25926	-18027.63555	-11374.53388	0.00618	0.00003	0.00419	0.00491	0.01011	0	0		
93.97268	22.83009	49.55506	49.26138	27.24521	-1.18512	0.04804	1.33315	1.36677	-3.02442	0.06095	-0.08558	-55.83496	-1.45592	403.38585	393.46484	-18030.07245	-11375.15828	0.00619	0.00003	0.0042	0.00492	0.01012	0	0		
94.974	22.83907	49.55813	49.26508	27.25056	-1.18512	0.0485	1.33307	1.36617	-3.02442	0.06319	-0.08559	-55.78903	-1.45279	403.20854	393.4404	-18033.08237	-11375.78922	0.00619	0.00003	0.0042	0.00493	0.01012	0	0		
95.97532	22.84792	49.56171	49.26713	27.25498	-1.18512	0.04887	1.33335	1.36701	-3.02442	0.06367	-0.08571	-55.73318	-1.4604	403.45681	393.52368	-18035.86914	-11376.31374	0.00619	0.00003	0.0042	0.00494	0.01012	0	0		
96.97764	22.85535	49.56442	49.27037	27.26071	-1.18512	0.04799	1.33394	1.36769	-3.02442	0.0623	-0.08565	-55.71151	-1.45776	403.65739	393.69825	-18038.63205	-11376.86845	0.00619	0.00003	0.0042	0.00492	0.01012	0	0		
97.97893	22.86327	49.56756	49.27438	27.26541	-1.18512	0.04964	1.33579	1.36583	-3.02442	0.06173	-0.0857	-55.67091	-1.45344	403.10936	394.24412	-18041.28193	-11377.53436	0.00619	0.00003	0.0042	0.00495	0.01013	0	0		
98.98128	22.87152	49.57065	49.27722	27.27038	-1.18512	0.04837	1.33462	1.36717	-3.02442	0.06186	-0.08564	-55.62936	-1.45467	403.50524	393.89799	-18044.0607	-11378.08744	0.00619	0.00003	0.0042	0.00493	0.01012	0	0		
99.9836	22.88062	49.574	49.27951	27.27644	-1.18512	0.05002	1.33494	1.36693	-3.02442	0.06302	-0.08574	-55.59083	-1.45994	403.43307	393.99325	-18047.2436	-11378.61298	0.00619	0.00003	0.0042	0.00496	0.01013	0	0		
100.98489	22.88889	49.57698	49.28285	27.28087	-1.18512	0.04897	1.33631	1.36875	-3.02442	0.06159	-0.08563	-55.5424	-1.4581	403.9714	394.39673	-18049.91021	-11379.20217	0.00619	0.00003	0.0042	0.00494	0.01013	0	0		
101.98524	22.89627	49.58114	49.28685	27.28627	-1.18512	0.04959	1.33624	1.36667	-3.02442	0.06279	-0.08562	-55.51728	-1.45894	403.35876	394.37524	-18052.59597	-11379.96269	0.00619	0.00003	0.0042	0.00495	0.01013	0	0		
102.98856	22.9058	49.58403	49.29076	27.29175	-1.18512	0.04907	1.33653	1.3692	-3.02442	0.06259	-0.08569	-55.46601	-1.45388	404.10501	394.46335	-18055.74855	-11380.59685	0.00619	0.00003	0.0042	0.00494	0.01013	0	0		
103.98886	22.91465	49.58835	49.2941	27.29808	-1.18512	0.04987	1.33823	1.36792	-3.02442	0.06218	-0.08577	-55.43432	-1.45873	403.72533	394.96497	-18058.93839	-11381.3107	0.00619	0.00002	0.0042	0.00496	0.01014	0	0		
104.98921	22.92246	49.59115	49.29743	27.30357	-1.18512	0.04725	1.33695	1.3725	-3.02442	0.06151	-0.0856	-55.40487	-1.45614	405.07932	394.58735	-18061.73284	-11381.8814	0.0062	0.00003	0.0042	0.00491	0.01014	0	0		
105.99252	22.93062	49.59265	49.30008	27.30886	-1.18512	0.04916	1.33869	1.3699	-3.02442	0.06266	-0.08574	-55.36862	-1.45043	404.3108	395.09803	-18064.55718	-11382.26825	0.00619	0.00003	0.0042	0.00494	0.01014	0	0		
106.99285	22.9395	49.59666	49.30328	27.31489	-1.18512	0.04869	1.33744	1.36937	-3.02442	0.06252	-0.08565	-55.33256	-1.45444	404.15322	394.72979	-18067.69078	-11382.9411	0.00619	0.00003	0.0042	0.00493	0.01014	0	0		
107.99417	22.94896	49.60011	49.30653	27.32203	-1.18512	0.04955	1.33821	1.37207	-3.02442	0.0617	-0.08566	-55.30321	-1.4554	404.95191	394.9586	-18071.17936	-11383.56496	0.0062	0.00003	0.0042	0.00495	0.01014	0	0		
108.99649	22.95735	49.60354	49.30959	27.32597	-1.18512	0.04699	1.33863	1.37349	-3.02442	0.06399	-0.08568	-55.24704	-1.4573	405.37113	395.08037	-18073.77137	-11384.16996	0.0062	0.00003	0.0042	0.0049	0.01014	0	0		
109.99681	22.96555	49.60625	49.3122	27.33141	-1.18512	0.0477	1.33843	1.37091	-3.02442	0.06069	-0.08564	-55.21193	-1.45777	404.6081	395.0232	-18076.63781	-11384.66544	0.00619	0.00003	0.00419	0.00492	0.01014	0	0		
111.0001	22.97425	49.61068	49.31642	27.33549	-1.18512	0.04684	1.33825	1.37362	-3.02442	0.06248	-0.08571	-55.15368	-1.45879	405.40744	394.96819	-18079.32426	-11385.47151	0.0062	0.00003	0.0042	0.0049	0.01014	0	0		
112.00345	22.98316	49.61393	49.31986	27.34153	-1.18512	0.04671	1.33934	1.37094	-3.02442	0.06158	-0.08568	-55.11732	-1.45787	404.6172	395.29035	-18082.46694	-11386.09627	0.00619	0.00003	0.0042	0.0049	0.01015	0	0		
113.00474	22.99165	49.61624	49.32276	27.34747	-1.18512	0.04988	1.33859	1.36919	-3.02442	0.06167	-0.08564	-55.08512	-1.45497	404.10099	395.06968	-18085.49975	-11386.58159	0.00619	0.00003	0.0042	0.00496	0.01014	0	0		
114.00706	23.00035	49.62014	49.32688	27.3535	-1.18512	0.04989	1.33662	1.36523	-3.02442	0.0609	-0.08565	-55.05121	-1.45385	402.9339	394.48801	-18088.59662	-11387.32937	0.00618	0.00003	0.00419	0.00496	0.01013	0	0		
115.00941	23.00933	49.62348	49.32884	27.35916	-1.18512	0.04699	1.33188	1.36486	-3.02442	0.06261	-0.08571	-55.00936	-1.46069	402.82396	393.08873	-18091.67317	-11387.82311	0.00618	0.00003	0.0042	0.0049	0.01011	0	0		
116.00873	23.01772	49.62691	49.33138	27.36663	-1.18512	0.0476	1.32725	1.36067	-3.02442	0.0634	-0.08579	-54.99767	-1.46507	401.58674	391.7243	-18095.01093	-11388.37989	0.00618	0.00002	0.0042	0.00491	0.01009	0	0		
