11/01/2024 11:17:59Time	T_hot_in(C)	T_cold_in(C)	T_cold_out(C)	T_hot_out(C)	mdot_cold(kg/s)	ASFASIFUAS(kg/s)	Diferencial_cold(bar)	Diferencial_hot(bar)	mdot_hot(kg/s)	ABS_cold(bar)	ABS_hot(bar)	q_cold(kW)	q_hot(kW)	ASFASYFY	Tau_cold_haste	Re_hot	Re_cold	U_global	PSIG_cold(bar)	R_fouling	PSIG_hot(bar)	PSID_hot(bar)	m_dot_hot	PSID_cold(bar)	m_dot_cold
1.75457  	0.00000  	0.00000  	0.00000  	0.00000  	-1.18512  	-0.20833  	-0.86278  	-2.50000  	-3.02442  	-1.25000  	-0.08628  	-0.00000  	-0.00000  	-737.84722  	-254.63905  	-9234.48090  	-3618.55272  	0.00000  	0.00000  	0.00000  	0.00000  	0.00000  	0.00000  	0.00000  
2.75701  	33.25059  	5.13010  	5.38429  	24.40789  	-1.18512  	0.01848  	0.18943  	0.18023  	-3.02442  	0.02816  	-0.08585  	-112.13354  	-1.26013  	53.19197  	55.90784  	-19648.58358  	-4212.57014  	0.00429  	0.00002  	0.00409  	0.00435  	0.00485  	0.00000  	0.00000  
3.75741  	33.25047  	5.12983  	5.38421  	24.40622  	-1.18512  	0.02052  	0.19085  	0.18062  	-3.02442  	0.03140  	-0.08571  	-112.15331  	-1.26105  	53.30795  	56.32621  	-19648.19684  	-4212.54824  	0.00429  	0.00003  	0.00410  	0.00439  	0.00485  	0.00000  	0.00000  
4.75808  	33.25228  	5.12840  	5.38261  	24.40541  	-1.18512  	0.02117  	0.19467  	0.18587  	-3.02442  	0.03163  	-0.08576  	-112.18656  	-1.26022  	54.85647  	57.45434  	-19648.41327  	-4212.36733  	0.00430  	0.00002  	0.00410  	0.00441  	0.00487  	0.00000  	0.00000  
5.75764  	33.25228  	5.12701  	5.38254  	24.40649  	-1.18512  	0.02296  	0.19282  	0.18371  	-3.02442  	0.03101  	-0.08585  	-112.17295  	-1.26679  	54.22057  	56.90850  	-19648.64644  	-4212.27931  	0.00429  	0.00002  	0.00410  	0.00444  	0.00486  	0.00000  	0.00000  
6.75935  	33.25351  	5.12664  	5.38205  	24.40804  	-1.18512  	0.01972  	0.19410  	0.18514  	-3.02442  	0.02833  	-0.08584  	-112.16884  	-1.26619  	54.64289  	57.28726  	-19649.25013  	-4212.22790  	0.00430  	0.00002  	0.00409  	0.00438  	0.00487  	0.00000  	0.00000  
7.75873  	33.25473  	5.12621  	5.38198  	24.41155  	-1.18512  	0.01996  	0.19679  	0.18495  	-3.02442  	0.02729  	-0.08577  	-112.13975  	-1.26796  	54.58478  	58.08004  	-19650.27318  	-4212.19776  	0.00430  	0.00002  	0.00409  	0.00438  	0.00488  	0.00000  	0.00000  
8.75989  	33.25592  	5.12414  	5.38013  	24.41811  	-1.18512  	0.02075  	0.19775  	0.18441  	-3.02442  	0.03090  	-0.08581  	-112.07183  	-1.26907  	54.42528  	58.36369  	-19651.95133  	-4211.96200  	0.00430  	0.00002  	0.00410  	0.00440  	0.00489  	0.00000  	0.00000  
9.76207  	33.25674  	5.12326  	5.37959  	24.42334  	-1.18512  	0.02155  	0.19618  	0.19088  	-3.02442  	0.03202  	-0.08573  	-112.01589  	-1.27073  	56.33592  	57.90149  	-19653.26344  	-4211.87698  	0.00431  	0.00003  	0.00410  	0.00441  	0.00488  	0.00000  	0.00000  
10.76430  	33.25742  	5.12257  	5.37931  	24.42972  	-1.18512  	0.01963  	0.19781  	0.18669  	-3.02442  	0.03344  	-0.08574  	-111.94364  	-1.27276  	55.09814  	58.38029  	-19654.79261  	-4211.81843  	0.00430  	0.00003  	0.00411  	0.00438  	0.00489  	0.00000  	0.00000  
11.76608  	33.25935  	5.12192  	5.37918  	24.43723  	-1.18512  	0.02309  	0.19920  	0.19456  	-3.02442  	0.03294  	-0.08575  	-111.87294  	-1.27531  	57.42322  	58.79042  	-19656.83716  	-4211.77198  	0.00431  	0.00002  	0.00411  	0.00444  	0.00489  	0.00000  	0.00000  
12.76608  	33.26095  	5.12154  	5.37775  	24.44579  	-1.18512  	0.02460  	0.19788  	0.18737  	-3.02442  	0.03360  	-0.08587  	-111.78477  	-1.27018  	55.30084  	58.40108  	-19659.03864  	-4211.66342  	0.00430  	0.00002  	0.00411  	0.00447  	0.00489  	0.00000  	0.00000  
13.76744  	33.26288  	5.12058  	5.37713  	24.45457  	-1.18512  	0.02312  	0.19664  	0.19532  	-3.02442  	0.03053  	-0.08567  	-111.69781  	-1.27181  	57.64643  	58.03748  	-19661.36045  	-4211.56900  	0.00431  	0.00003  	0.00410  	0.00444  	0.00488  	0.00000  	0.00000  
14.76936  	33.26477  	5.11951  	5.37681  	24.46321  	-1.18512  	0.02211  	0.19712  	0.18896  	-3.02442  	0.03169  	-0.08584  	-111.61237  	-1.27556  	55.76819  	58.17913  	-19663.64224  	-4211.48503  	0.00430  	0.00002  	0.00410  	0.00442  	0.00488  	0.00000  	0.00000  
15.77006  	33.26678  	5.11857  	5.37579  	24.47084  	-1.18512  	0.02142  	0.19636  	0.18622  	-3.02442  	0.03458  	-0.08575  	-111.54112  	-1.27515  	54.96156  	57.95435  	-19665.73153  	-4211.36773  	0.00430  	0.00002  	0.00411  	0.00441  	0.00488  	0.00000  	0.00000  
16.77205  	33.26832  	5.11696  	5.37492  	24.47884  	-1.18512  	0.02337  	0.19457  	0.18230  	-3.02442  	0.02881  	-0.08588  	-111.45927  	-1.27885  	53.80373  	57.42410  	-19667.79969  	-4211.21898  	0.00429  	0.00002  	0.00409  	0.00445  	0.00487  	0.00000  	0.00000  
17.77208  	33.27043  	5.11700  	5.37493  	24.48545  	-1.18512  	0.02086  	0.19622  	0.18679  	-3.02442  	0.03219  	-0.08577  	-111.40223  	-1.27866  	55.12880  	57.91305  	-19669.68998  	-4211.22184  	0.00430  	0.00002  	0.00410  	0.00440  	0.00488  	0.00000  	0.00000  
18.77209  	33.27092  	5.11548  	5.37432  	24.49086  	-1.18512  	0.02107  	0.19322  	0.18677  	-3.02442  	0.03504  	-0.08582  	-111.33980  	-1.28318  	55.12344  	57.02748  	-19670.96677  	-4211.09360  	0.00430  	0.00002  	0.00411  	0.00440  	0.00487  	0.00000  	0.00000  
19.77214  	33.27201  	5.11553  	5.37302  	24.49595  	-1.18512  	0.02247  	0.19366  	0.18295  	-3.02442  	0.03140  	-0.08575  	-111.28918  	-1.27651  	53.99507  	57.15788  	-19672.30842  	-4211.01876  	0.00429  	0.00002  	0.00410  	0.00443  	0.00487  	0.00000  	0.00000  
20.77212  	33.27393  	5.11501  	5.37254  	24.49942  	-1.18512  	0.02182  	0.19198  	0.18079  	-3.02442  	0.03121  	-0.08580  	-111.26947  	-1.27667  	53.35716  	56.66107  	-19673.47550  	-4210.95897  	0.00429  	0.00002  	0.00410  	0.00442  	0.00486  	0.00000  	0.00000  
21.77206  	33.27519  	5.11384  	5.37140  	24.50226  	-1.18512  	0.01981  	0.19057  	0.17961  	-3.02442  	0.03052  	-0.08575  	-111.24947  	-1.27684  	53.01084  	56.24457  	-19674.36337  	-4210.82044  	0.00429  	0.00002  	0.00410  	0.00438  	0.00485  	0.00000  	0.00000  
22.77314  	33.27620  	5.11272  	5.37017  	24.50393  	-1.18512  	0.01965  	0.19220  	0.17711  	-3.02442  	0.03386  	-0.08562  	-111.24129  	-1.27630  	52.27198  	56.72621  	-19674.94427  	-4210.67962  	0.00428  	0.00003  	0.00411  	0.00438  	0.00486  	0.00000  	0.00000  
23.77323  	33.27763  	5.11257  	5.37022  	24.50462  	-1.18512  	0.02062  	0.18801  	0.18369  	-3.02442  	0.03195  	-0.08575  	-111.25071  	-1.27727  	54.21312  	55.48870  	-19675.40332  	-4210.67370  	0.00429  	0.00002  	0.00410  	0.00440  	0.00484  	0.00000  	0.00000  
24.77444  	33.27826  	5.11175  	5.36891  	24.50405  	-1.18512  	0.01913  	0.18769  	0.17658  	-3.02442  	0.02952  	-0.08589  	-111.26580  	-1.27484  	52.11676  	55.39410  	-19675.41687  	-4210.54612  	0.00428  	0.00002  	0.00409  	0.00437  	0.00484  	0.00000  	0.00000  
25.77626  	33.27969  	5.11051  	5.36811  	24.50180  	-1.18512  	0.02023  	0.18619  	0.16973  	-3.02442  	0.02957  	-0.08577  	-111.31262  	-1.27704  	50.09378  	54.95256  	-19675.24111  	-4210.42295  	0.00427  	0.00002  	0.00409  	0.00439  	0.00483  	0.00000  	0.00000  
26.77725  	33.28085  	5.10891  	5.36732  	24.49891  	-1.18512  	0.02018  	0.18491  	0.17803  	-3.02442  	0.03109  	-0.08580  	-111.36407  	-1.28109  	52.54290  	54.57361  	-19674.86357  	-4210.27989  	0.00428  	0.00002  	0.00410  	0.00439  	0.00483  	0.00000  	0.00000  
27.77656  	33.28180  	5.10865  	5.36371  	24.49559  	-1.18512  	0.01904  	0.18307  	0.17955  	-3.02442  	0.03077  	-0.08585  	-111.41826  	-1.26443  	52.99088  	54.03173  	-19674.34973  	-4210.04747  	0.00429  	0.00002  	0.00410  	0.00437  	0.00482  	0.00000  	0.00000  
28.77722  	33.28220  	5.10785  	5.36356  	24.49070  	-1.18512  	0.01984  	0.18251  	0.17353  	-3.02442  	0.03332  	-0.08579  	-111.48539  	-1.26770  	51.21520  	53.86598  	-19673.37840  	-4209.99066  	0.00428  	0.00002  	0.00411  	0.00438  	0.00482  	0.00000  	0.00000  
29.77717  	33.28323  	5.10667  	5.36246  	24.48532  	-1.18512  	0.02060  	0.18028  	0.17146  	-3.02442  	0.03076  	-0.08570  	-111.56681  	-1.26806  	50.60456  	53.20824  	-19672.43418  	-4209.85426  	0.00427  	0.00003  	0.00410  	0.00440  	0.00481  	0.00000  	0.00000  
30.77732  	33.28360  	5.10549  	5.36126  	24.47781  	-1.18512  	0.01846  	0.18078  	0.17033  	-3.02442  	0.03020  	-0.08581  	-111.66672  	-1.26793  	50.26966  	53.35574  	-19670.88780  	-4209.71134  	0.00427  	0.00002  	0.00410  	0.00435  	0.00481  	0.00000  	0.00000  
31.77829  	33.28382  	5.10445  	5.35980  	24.46957  	-1.18512  	0.02008  	0.18303  	0.16855  	-3.02442  	0.03058  	-0.08576  	-111.77409  	-1.26588  	49.74692  	54.02054  	-19669.14916  	-4209.56135  	0.00427  	0.00002  	0.00410  	0.00439  	0.00482  	0.00000  	0.00000  
32.77900  	33.28388  	5.10318  	5.35863  	24.46048  	-1.18512  	0.01945  	0.18299  	0.17801  	-3.02442  	0.03205  	-0.08568  	-111.89013  	-1.26639  	52.53829  	54.00870  	-19667.19017  	-4209.41460  	0.00428  	0.00003  	0.00410  	0.00437  	0.00482  	0.00000  	0.00000  
33.77972  	33.28484  	5.10201  	5.35762  	24.45284  	-1.18512  	0.02131  	0.18634  	0.17436  	-3.02442  	0.03103  	-0.08579  	-111.99924  	-1.26720  	51.45994  	54.99535  	-19665.74442  	-4209.28410  	0.00428  	0.00002  	0.00410  	0.00441  	0.00483  	0.00000  	0.00000  
34.78009  	33.28571  	5.10159  	5.35765  	24.44583  	-1.18512  	0.02221  	0.18718  	0.18097  	-3.02442  	0.02979  	-0.08578  	-112.09916  	-1.26940  	53.41214  	55.24300  	-19664.41460  	-4209.26045  	0.00429  	0.00002  	0.00410  	0.00443  	0.00484  	0.00000  	0.00000  
35.78207  	33.28599  	5.10124  	5.35710  	24.43991  	-1.18512  	0.02063  	0.18713  	0.18124  	-3.02442  	0.03336  	-0.08571  	-112.17787  	-1.26839  	53.49111  	55.22895  	-19663.19155  	-4209.20667  	0.00429  	0.00003  	0.00411  	0.00440  	0.00484  	0.00000  	0.00000  
36.78343  	33.28726  	5.10022  	5.35523  	24.43482  	-1.18512  	0.02024  	0.19115  	0.17693  	-3.02442  	0.03139  	-0.08577  	-112.25859  	-1.26415  	52.21843  	56.41663  	-19662.36412  	-4209.03339  	0.00428  	0.00002  	0.00410  	0.00439  	0.00486  	0.00000  	0.00000  
37.78422  	33.28769  	5.09923  	5.35452  	24.43364  	-1.18512  	0.02016  	0.19183  	0.18510  	-3.02442  	0.03029  	-0.08566  	-112.27904  	-1.26555  	54.63084  	56.61577  	-19662.20012  	-4208.93156  	0.00430  	0.00003  	0.00410  	0.00439  	0.00486  	0.00000  	0.00000  
38.78422  	33.28975  	5.09874  	5.35442  	24.43319  	-1.18512  	0.02132  	0.19219  	0.18093  	-3.02442  	0.03166  	-0.08570  	-112.31083  	-1.26751  	53.39930  	56.72295  	-19662.55160  	-4208.89652  	0.00429  	0.00003  	0.00410  	0.00441  	0.00486  	0.00000  	0.00000  
39.78510  	33.29049  	5.09803  	5.35497  	24.43242  	-1.18512  	0.01982  	0.19358  	0.18685  	-3.02442  	0.02750  	-0.08572  	-112.33010  	-1.27376  	55.14665  	57.13197  	-19662.54357  	-4208.88630  	0.00430  	0.00003  	0.00409  	0.00438  	0.00487  	0.00000  	0.00000  
40.78526  	33.29212  	5.09751  	5.35400  	24.43583  	-1.18512  	0.02071  	0.19379  	0.18702  	-3.02442  	0.02909  	-0.08577  	-112.30748  	-1.27152  	55.19640  	57.19388  	-19663.63765  	-4208.79758  	0.00430  	0.00002  	0.00409  	0.00440  	0.00487  	0.00000  	0.00000  
41.78551  	33.29270  	5.09620  	5.35382  	24.43983  	-1.18512  	0.02063  	0.19588  	0.18714  	-3.02442  	0.03185  	-0.08586  	-112.26420  	-1.27713  	55.23230  	57.81149  	-19664.62748  	-4208.70767  	0.00430  	0.00002  	0.00410  	0.00440  	0.00488  	0.00000  	0.00000  
42.78597  	33.29458  	5.09584  	5.35289  	24.44382  	-1.18512  	0.02135  	0.19710  	0.18938  	-3.02442  	0.03110  	-0.08569  	-112.23733  	-1.27432  	55.89359  	58.17330  	-19665.90068  	-4208.63071  	0.00430  	0.00003  	0.00410  	0.00441  	0.00488  	0.00000  	0.00000  
43.78698  	33.29698  	5.09606  	5.35378  	24.44937  	-1.18512  	0.01989  	0.19848  	0.19047  	-3.02442  	0.03055  	-0.08588  	-112.19742  	-1.27765  	56.21649  	58.57924  	-19667.62355  	-4208.69726  	0.00430  	0.00002  	0.00410  	0.00438  	0.00489  	0.00000  	0.00000  
44.78694  	33.29770  	5.09508  	5.35289  	24.45728  	-1.18512  	0.02076  	0.19626  	0.18412  	-3.02442  	0.03441  	-0.08581  	-112.10633  	-1.27807  	54.33962  	57.92406  	-19669.49276  	-4208.58466  	0.00429  	0.00002  	0.00411  	0.00440  	0.00488  	0.00000  	0.00000  
45.78687  	33.29972  	5.09421  	5.35245  	24.46394  	-1.18512  	0.02035  	0.19924  	0.18231  	-3.02442  	0.03032  	-0.08579  	-112.04747  	-1.28016  	53.80721  	58.80273  	-19671.37406  	-4208.50628  	0.00429  	0.00002  	0.00410  	0.00439  	0.00489  	0.00000  	0.00000  
46.78684  	33.30128  	5.09249  	5.35136  	24.47211  	-1.18512  	0.02042  	0.19935  	0.18487  	-3.02442  	0.02932  	-0.08581  	-111.96369  	-1.28336  	54.56262  	58.83539  	-19673.48267  	-4208.33789  	0.00430  	0.00002  	0.00409  	0.00439  	0.00489  	0.00000  	0.00000  
47.78781  	33.30213  	5.09186  	5.35050  	24.48101  	-1.18512  	0.02083  	0.19669  	0.19123  	-3.02442  	0.03107  	-0.08575  	-111.86167  	-1.28221  	56.44054  	58.05105  	-19675.59676  	-4208.24858  	0.00431  	0.00002  	0.00410  	0.00440  	0.00488  	0.00000  	0.00000  
48.78897  	33.30324  	5.09111  	5.35031  	24.48911  	-1.18512  	0.02276  	0.19707  	0.18852  	-3.02442  	0.03019  	-0.08578  	-111.77312  	-1.28500  	55.63902  	58.16162  	-19677.59267  	-4208.19209  	0.00430  	0.00002  	0.00410  	0.00444  	0.00488  	0.00000  	0.00000  
49.79012  	33.30441  	5.09070  	5.34847  	24.49653  	-1.18512  	0.01988  	0.19605  	0.19448  	-3.02442  	0.03150  	-0.08572  	-111.69391  	-1.27791  	57.39733  	57.86341  	-19679.45377  	-4208.05705  	0.00431  	0.00003  	0.00410  	0.00438  	0.00488  	0.00000  	0.00000  
50.78979  	33.30569  	5.08954  	5.34782  	24.50340  	-1.18512  	0.02023  	0.19586  	0.18527  	-3.02442  	0.03168  	-0.08579  	-111.62309  	-1.28040  	54.68088  	57.80587  	-19681.22064  	-4207.94808  	0.00430  	0.00002  	0.00410  	0.00439  	0.00488  	0.00000  	0.00000  
51.79008  	33.30620  	5.08863  	5.34707  	24.50973  	-1.18512  	0.02148  	0.19436  	0.19028  	-3.02442  	0.03176  	-0.08578  	-111.54928  	-1.28119  	56.15759  	57.36321  	-19682.70338  	-4207.84913  	0.00430  	0.00002  	0.00410  	0.00441  	0.00487  	0.00000  	0.00000  
52.79026  	33.30729  	5.08947  	5.34497  	24.51384  	-1.18512  	0.02011  	0.19454  	0.18027  	-3.02442  	0.03202  	-0.08580  	-111.51106  	-1.26661  	53.20496  	57.41621  	-19683.83075  	-4207.77381  	0.00429  	0.00002  	0.00410  	0.00439  	0.00487  	0.00000  	0.00000  
53.79007  	33.30888  	5.08817  	5.34557  	24.51828  	-1.18512  	0.02075  	0.19354  	0.18637  	-3.02442  	0.03224  	-0.08578  	-111.47493  	-1.27602  	55.00362  	57.12022  	-19685.13740  	-4207.73181  	0.00430  	0.00002  	0.00410  	0.00440  	0.00487  	0.00000  	0.00000  
54.78944  	33.30896  	5.08741  	5.34488  	24.52068  	-1.18512  	0.01935  	0.19094  	0.18409  	-3.02442  	0.03046  	-0.08581  	-111.44550  	-1.27639  	54.33210  	56.35452  	-19685.67449  	-4207.64473  	0.00429  	0.00002  	0.00410  	0.00437  	0.00485  	0.00000  	0.00000  
55.79008  	33.31014  	5.08590  	5.34438  	24.52375  	-1.18512  	0.02083  	0.19013  	0.18329  	-3.02442  	0.03174  	-0.08581  	-111.42163  	-1.28139  	54.09627  	56.11346  	-19686.59643  	-4207.52402  	0.00429  	0.00002  	0.00410  	0.00440  	0.00485  	0.00000  	0.00000  
56.79007  	33.31082  	5.08507  	5.34346  	24.52449  	-1.18512  	0.01887  	0.18966  	0.17611  	-3.02442  	0.02745  	-0.08580  	-111.42091  	-1.28093  	51.97811  	55.97505  	-19686.90456  	-4207.41945  	0.00428  	0.00002  	0.00409  	0.00436  	0.00485  	0.00000  	0.00000  
57.79008  	33.31042  	5.08451  	5.34267  	24.52450  	-1.18512  	0.01910  	0.18638  	0.17073  	-3.02442  	0.02910  	-0.08588  	-111.41565  	-1.27981  	50.39046  	55.00691  	-19686.82125  	-4207.33793  	0.00427  	0.00002  	0.00409  	0.00437  	0.00483  	0.00000  	0.00000  
58.79218  	33.31120  	5.08405  	5.34198  	24.52344  	-1.18512  	0.02034  	0.18548  	0.17773  	-3.02442  	0.03245  	-0.08568  	-111.43906  	-1.27866  	52.45548  	54.74156  	-19686.76150  	-4207.26921  	0.00428  	0.00003  	0.00410  	0.00439  	0.00483  	0.00000  	0.00000  
59.79297  	33.31140  	5.08294  	5.33996  	24.52042  	-1.18512  	0.01806  	0.18565  	0.17684  	-3.02442  	0.03258  	-0.08576  	-111.48006  	-1.27420  	52.19219  	54.79297  	-19686.14942  	-4207.08159  	0.00428  	0.00002  	0.00410  	0.00435  	0.00483  	0.00000  	0.00000  
60.79421  	33.31111  	5.08306  	5.33860  	24.51647  	-1.18512  	0.01907  	0.18424  	0.16688  	-3.02442  	0.03051  	-0.08588  	-111.52650  	-1.26685  	49.25351  	54.37592  	-19685.22915  	-4207.00712  	0.00427  	0.00002  	0.00410  	0.00437  	0.00482  	0.00000  	0.00000  
61.79426  	33.31111  	5.08214  	5.33839  	24.51297  	-1.18512  	0.02219  	0.18528  	0.17326  	-3.02442  	0.03379  	-0.08561  	-111.57082  	-1.27034  	51.13654  	54.68433  	-19684.47188  	-4206.93958  	0.00428  	0.00003  	0.00411  	0.00443  	0.00483  	0.00000  	0.00000  
62.79715  	33.31079  	5.08251  	5.33839  	24.50679  	-1.18512  	0.01806  	0.18153  	0.17065  	-3.02442  	0.02966  	-0.08582  	-111.64509  	-1.26851  	50.36400  	53.57682  	-19683.06163  	-4206.96138  	0.00427  	0.00002  	0.00409  	0.00435  	0.00481  	0.00000  	0.00000  
63.79848  	33.31106  	5.08183  	5.33864  	24.50007  	-1.18512  	0.02041  	0.18064  	0.16736  	-3.02442  	0.03207  	-0.08591  	-111.73384  	-1.27313  	49.39333  	53.31429  	-19681.66371  	-4206.93608  	0.00427  	0.00002  	0.00410  	0.00439  	0.00481  	0.00000  	0.00000  
64.79946  	33.30964  	5.08102  	5.33698  	24.49220  	-1.18512  	0.02026  	0.18212  	0.16756  	-3.02442  	0.03051  	-0.08575  	-111.81566  	-1.26890  	49.45375  	53.75214  	-19679.65163  	-4206.78835  	0.00427  	0.00002  	0.00410  	0.00439  	0.00481  	0.00000  	0.00000  
65.80240  	33.30927  	5.08154  	5.33647  	24.48412  	-1.18512  	0.02073  	0.18362  	0.17439  	-3.02442  	0.03208  	-0.08582  	-111.91339  	-1.26381  	51.46904  	54.19290  	-19677.81710  	-4206.78835  	0.00428  	0.00002  	0.00410  	0.00440  	0.00482  	0.00000  	0.00000  
66.80328  	33.30909  	5.08095  	5.33554  	24.47562  	-1.18512  	0.02109  	0.18711  	0.17461  	-3.02442  	0.03159  	-0.08572  	-112.01899  	-1.26213  	51.53550  	55.22324  	-19675.93675  	-4206.69750  	0.00428  	0.00003  	0.00410  	0.00440  	0.00484  	0.00000  	0.00000  
67.80295  	33.30818  	5.08012  	5.33579  	24.46860  	-1.18512  	0.01771  	0.18610  	0.17721  	-3.02442  	0.03168  	-0.08581  	-112.09648  	-1.26749  	52.30237  	54.92673  	-19674.21918  	-4206.66265  	0.00428  	0.00002  	0.00410  	0.00434  	0.00483  	0.00000  	0.00000  
68.80377  	33.30874  	5.07847  	5.33518  	24.46119  	-1.18512  	0.02106  	0.18840  	0.17732  	-3.02442  	0.03095  	-0.08575  	-112.19766  	-1.27261  	52.33272  	55.60392  	-19672.73408  	-4206.52743  	0.00428  	0.00002  	0.00410  	0.00440  	0.00484  	0.00000  	0.00000  
69.80545  	33.30927  	5.07824  	5.33372  	24.45765  	-1.18512  	0.02042  	0.18976  	0.18323  	-3.02442  	0.03147  	-0.08583  	-112.24922  	-1.26650  	54.07835  	56.00433  	-19672.08197  	-4206.42546  	0.00429  	0.00002  	0.00410  	0.00439  	0.00485  	0.00000  	0.00000  
70.80645  	33.30968  	5.07802  	5.33312  	24.45471  	-1.18512  	0.02028  	0.19237  	0.18636  	-3.02442  	0.03468  	-0.08569  	-112.29171  	-1.26465  	55.00233  	56.77485  	-19671.53422  	-4206.37626  	0.00430  	0.00003  	0.00411  	0.00439  	0.00486  	0.00000  	0.00000  
71.80945  	33.31015  	5.07576  	5.33218  	24.45320  	-1.18512  	0.02184  	0.19259  	0.17967  	-3.02442  	0.02830  	-0.08594  	-112.31696  	-1.27115  	53.02866  	56.84059  	-19671.30632  	-4206.18478  	0.00429  	0.00002  	0.00409  	0.00442  	0.00486  	0.00000  	0.00000  
72.81023  	33.31058  	5.07561  	5.33207  	24.45323  	-1.18512  	0.02013  	0.19444  	0.18510  	-3.02442  	0.02997  	-0.08574  	-112.32196  	-1.27134  	54.63096  	57.38730  	-19671.40735  	-4206.16900  	0.00430  	0.00003  	0.00410  	0.00439  	0.00487  	0.00000  	0.00000  
73.81209  	33.31126  	5.07556  	5.33176  	24.45507  	-1.18512  	0.02199  	0.19423  	0.18565  	-3.02442  	0.03188  	-0.08573  	-112.30726  	-1.27009  	54.79199  	57.32358  	-19671.95447  	-4206.14701  	0.00430  	0.00003  	0.00410  	0.00442  	0.00487  	0.00000  	0.00000  
74.81430  	33.31200  	5.07380  	5.33106  	24.45828  	-1.18512  	0.02038  	0.19645  	0.18575  	-3.02442  	0.02931  	-0.08575  	-112.27600  	-1.27537  	54.82152  	57.98058  	-19672.80937  	-4205.99988  	0.00430  	0.00002  	0.00409  	0.00439  	0.00488  	0.00000  	0.00000  
75.81391  	33.31302  	5.07291  	5.32932  	24.46253  	-1.18512  	0.01988  	0.19541  	0.18869  	-3.02442  	0.03045  	-0.08575  	-112.23524  	-1.27113  	55.68850  	57.67387  	-19673.95209  	-4205.84296  	0.00430  	0.00002  	0.00410  	0.00438  	0.00488  	0.00000  	0.00000  
76.81502  	33.31428  	5.07259  	5.32936  	24.46834  	-1.18512  	0.02020  	0.19715  	0.18957  	-3.02442  	0.03053  	-0.08570  	-112.17754  	-1.27291  	55.94889  	58.18764  	-19675.48326  	-4205.82569  	0.00430  	0.00003  	0.00410  	0.00439  	0.00488  	0.00000  	0.00000  
77.81445  	33.31552  	5.07154  	5.32876  	24.47434  	-1.18512  	0.02179  	0.19621  	0.19484  	-3.02442  	0.03247  	-0.08577  	-112.11710  	-1.27515  	57.50391  	57.90792  	-19677.05326  	-4205.72696  	0.00431  	0.00002  	0.00410  	0.00442  	0.00488  	0.00000  	0.00000  
78.81509  	33.31600  	5.07124  	5.32913  	24.48153  	-1.18512  	0.02210  	0.19726  	0.19036  	-3.02442  	0.03140  	-0.08576  	-112.03201  	-1.27846  	56.18410  	58.21896  	-19678.71524  	-4205.73121  	0.00430  	0.00002  	0.00410  	0.00442  	0.00488  	0.00000  	0.00000  
79.81597  	33.31725  	5.06965  	5.32864  	24.48976  	-1.18512  	0.02305  	0.20040  	0.19189  	-3.02442  	0.03124  	-0.08568  	-111.94363  	-1.28391  	56.63306  	59.14612  	-19680.77176  	-4205.60657  	0.00431  	0.00003  	0.00410  	0.00444  	0.00490  	0.00000  	0.00000  
80.81738  	33.31829  	5.06978  	5.32793  	24.49766  	-1.18512  	0.02397  	0.19779  	0.19051  	-3.02442  	0.03402  	-0.08565  	-111.85651  	-1.27975  	56.22658  	58.37506  	-19682.70901  	-4205.57099  	0.00430  	0.00003  	0.00411  	0.00446  	0.00489  	0.00000  	0.00000  
81.81795  	33.31936  	5.06908  	5.32736  	24.50460  	-1.18512  	0.02146  	0.19682  	0.18646  	-3.02442  	0.03195  	-0.08578  	-111.78227  	-1.28044  	55.03307  	58.08922  	-19684.44493  	-4205.49538  	0.00430  	0.00002  	0.00410  	0.00441  	0.00488  	0.00000  	0.00000  
82.81793  	33.32093  	5.06889  	5.32708  	24.51243  	-1.18512  	0.01892  	0.19623  	0.19258  	-3.02442  	0.02811  	-0.08583  	-111.70275  	-1.27993  	56.83915  	57.91414  	-19686.48162  	-4205.46727  	0.00431  	0.00002  	0.00409  	0.00436  	0.00488  	0.00000  	0.00000  
83.81919  	33.32141  	5.06841  	5.32656  	24.51896  	-1.18512  	0.02112  	0.19532  	0.18529  	-3.02442  	0.03052  	-0.08583  	-111.62602  	-1.27975  	54.68698  	57.64517  	-19688.00178  	-4205.40757  	0.00430  	0.00002  	0.00410  	0.00441  	0.00488  	0.00000  	0.00000  
84.81982  	33.32230  	5.06717  	5.32523  	24.52623  	-1.18512  	0.02151  	0.19381  	0.18355  	-3.02442  	0.03497  	-0.08571  	-111.54529  	-1.27929  	54.17140  	57.20153  	-19689.77172  	-4205.25334  	0.00429  	0.00003  	0.00411  	0.00441  	0.00487  	0.00000  	0.00000  
85.82018  	33.32316  	5.06703  	5.32446  	24.52983  	-1.18512  	0.02005  	0.19141  	0.18491  	-3.02442  	0.02951  	-0.08577  	-111.51052  	-1.27619  	54.57450  	56.49115  	-19690.73888  	-4205.19836  	0.00430  	0.00002  	0.00409  	0.00438  	0.00486  	0.00000  	0.00000  
86.82065  	33.32441  	5.06751  	5.32406  	24.53359  	-1.18512  	0.02162  	0.19375  	0.18756  	-3.02442  	0.03526  	-0.08567  	-111.47882  	-1.27187  	55.35596  	57.18379  	-19691.82455  	-4205.20350  	0.00430  	0.00003  	0.00411  	0.00442  	0.00487  	0.00000  	0.00000  
87.82219  	33.32571  	5.06718  	5.32518  	24.53673  	-1.18512  	0.02117  	0.19205  	0.17771  	-3.02442  	0.02958  	-0.08573  	-111.45531  	-1.27899  	52.45037  	56.68044  	-19692.78755  	-4205.25098  	0.00428  	0.00003  	0.00409  	0.00441  	0.00486  	0.00000  	0.00000  
88.82418  	33.32563  	5.06697  	5.32564  	24.53869  	-1.18512  	0.02160  	0.19112  	0.17979  	-3.02442  	0.03404  	-0.08579  	-111.42957  	-1.28232  	53.06414  	56.40635  	-19693.19498  	-4205.26545  	0.00429  	0.00002  	0.00411  	0.00441  	0.00486  	0.00000  	0.00000  
89.82557  	33.32675  	5.06646  	5.32525  	24.53895  	-1.18512  	0.02236  	0.18922  	0.17599  	-3.02442  	0.02927  	-0.08585  	-111.44035  	-1.28292  	51.94054  	55.84582  	-19693.49429  	-4205.21173  	0.00428  	0.00002  	0.00409  	0.00443  	0.00485  	0.00000  	0.00000  
90.82622  	33.32660  	5.06644  	5.32540  	24.53876  	-1.18512  	0.02231  	0.18709  	0.17933  	-3.02442  	0.03119  	-0.08576  	-111.44085  	-1.28378  	52.92595  	55.21622  	-19693.41900  	-4205.21952  	0.00429  	0.00002  	0.00410  	0.00443  	0.00484  	0.00000  	0.00000  
91.82611  	33.32801  	5.06560  	5.32389  	24.53556  	-1.18512  	0.02202  	0.18757  	0.17843  	-3.02442  	0.03017  	-0.08578  	-111.49948  	-1.28044  	52.66141  	55.35820  	-19693.03262  	-4205.07897  	0.00429  	0.00002  	0.00410  	0.00442  	0.00484  	0.00000  	0.00000  
92.82616  	33.32795  	5.06575  	5.32339  	24.53428  	-1.18512  	0.02178  	0.18438  	0.17090  	-3.02442  	0.03098  	-0.08585  	-111.51493  	-1.27727  	50.43805  	54.41789  	-19692.74204  	-4205.05770  	0.00427  	0.00002  	0.00410  	0.00442  	0.00482  	0.00000  	0.00000  
93.82767  	33.32842  	5.06548  	5.32272  	24.53106  	-1.18512  	0.01995  	0.18445  	0.17595  	-3.02442  	0.03131  	-0.08582  	-111.56174  	-1.27525  	51.92985  	54.43972  	-19692.14580  	-4205.00157  	0.00428  	0.00002  	0.00410  	0.00438  	0.00482  	0.00000  	0.00000  
94.82926  	33.32787  	5.06444  	5.32190  	24.52637  	-1.18512  	0.02045  	0.18469  	0.17285  	-3.02442  	0.03262  	-0.08567  	-111.61428  	-1.27636  	51.01406  	54.51020  	-19691.00791  	-4204.89026  	0.00428  	0.00003  	0.00410  	0.00439  	0.00483  	0.00000  	0.00000  
95.82881  	33.32816  	5.06417  	5.32135  	24.51869  	-1.18512  	0.02107  	0.18115  	0.16843  	-3.02442  	0.03170  	-0.08579  	-111.71530  	-1.27491  	49.70894  	53.46379  	-19689.40670  	-4204.84100  	0.00427  	0.00002  	0.00410  	0.00440  	0.00481  	0.00000  	0.00000  
96.83234  	33.32821  	5.06376  	5.31958  	24.51095  	-1.18512  	0.02014  	0.17861  	0.17198  	-3.02442  	0.03035  	-0.08582  	-111.81418  	-1.26819  	50.75680  	52.71340  	-19687.74015  	-4204.71016  	0.00428  	0.00002  	0.00410  	0.00439  	0.00480  	0.00000  	0.00000  
97.83305  	33.32827  	5.06273  	5.32006  	24.50362  	-1.18512  	0.01906  	0.18120  	0.17365  	-3.02442  	0.03097  	-0.08572  	-111.90795  	-1.27572  	51.24955  	53.47885  	-19686.16198  	-4204.67743  	0.00428  	0.00003  	0.00410  	0.00437  	0.00481  	0.00000  	0.00000  
98.83317  	33.32782  	5.06179  	5.31810  	24.49542  	-1.18512  	0.01982  	0.18505  	0.17219  	-3.02442  	0.03116  	-0.08575  	-112.00639  	-1.27064  	50.82024  	54.61516  	-19684.28912  	-4204.50305  	0.00428  	0.00002  	0.00410  	0.00438  	0.00483  	0.00000  	0.00000  
99.83367  	33.32822  	5.06186  	5.31680  	24.48705  	-1.18512  	0.02135  	0.18409  	0.17811  	-3.02442  	0.03156  	-0.08580  	-112.11766  	-1.26385  	52.56675  	54.33300  	-19682.56098  	-4204.42983  	0.00428  	0.00002  	0.00410  	0.00441  	0.00482  	0.00000  	0.00000  
100.83509  	33.32825  	5.06132  	5.31612  	24.47944  	-1.18512  	0.02167  	0.18599  	0.17673  	-3.02442  	0.03155  	-0.08580  	-112.21449  	-1.26315  	52.15956  	54.89286  	-19680.91780  	-4204.35656  	0.00428  	0.00002  	0.00410  	0.00442  	0.00483  	0.00000  	0.00000  
101.83562  	33.32791  	5.06019  	5.31612  	24.47302  	-1.18512  	0.01981  	0.18995  	0.18345  	-3.02442  	0.03002  	-0.08572  	-112.29166  	-1.26876  	54.14373  	56.06165  	-19679.45254  	-4204.28923  	0.00429  	0.00003  	0.00410  	0.00438  	0.00485  	0.00000  	0.00000  
102.83605  	33.32794  	5.05930  	5.31514  	24.46871  	-1.18512  	0.02013  	0.19026  	0.18055  	-3.02442  	0.03104  	-0.08582  	-112.34669  	-1.26827  	53.28586  	56.15395  	-19678.52393  	-4204.17685  	0.00429  	0.00002  	0.00410  	0.00439  	0.00485  	0.00000  	0.00000  
103.83677  	33.32901  	5.05940  	5.31407  	24.46428  	-1.18512  	0.02150  	0.18934  	0.18016  	-3.02442  	0.03223  	-0.08578  	-112.41643  	-1.26251  	53.17257  	55.88024  	-19677.79535  	-4204.11932  	0.00429  	0.00002  	0.00410  	0.00441  	0.00485  	0.00000  	0.00000  
104.83760  	33.33018  	5.05838  	5.31402  	24.46361  	-1.18512  	0.01898  	0.19281  	0.18484  	-3.02442  	0.03194  	-0.08572  	-112.43981  	-1.26733  	54.55356  	56.90445  	-19677.90445  	-4204.05501  	0.00430  	0.00003  	0.00410  	0.00436  	0.00486  	0.00000  	0.00000  
105.83781  	33.33120  	5.05863  	5.31344  	24.46494  	-1.18512  	0.02047  	0.19451  	0.18253  	-3.02442  	0.03181  	-0.08573  	-112.43597  	-1.26320  	53.87058  	57.40761  	-19678.41417  	-4204.03484  	0.00429  	0.00003  	0.00410  	0.00439  	0.00487  	0.00000  	0.00000  
106.83943  	33.33159  	5.05744  	5.31295  	24.46761  	-1.18512  	0.02084  	0.19427  	0.18767  	-3.02442  	0.03269  	-0.08572  	-112.40702  	-1.26672  	55.38926  	57.33559  	-19679.07902  	-4203.93425  	0.00430  	0.00003  	0.00410  	0.00440  	0.00487  	0.00000  	0.00000  
107.83886  	33.33195  	5.05671  	5.31282  	24.47032  	-1.18512  	0.02279  	0.19523  	0.18656  	-3.02442  	0.03440  	-0.08583  	-112.37719  	-1.26964  	55.06073  	57.61853  	-19679.74198  	-4203.88259  	0.00430  	0.00002  	0.00411  	0.00444  	0.00487  	0.00000  	0.00000  
108.83857  	33.33396  	5.05678  	5.31193  	24.47432  	-1.18512  	0.02130  	0.19751  	0.18721  	-3.02442  	0.03310  	-0.08581  	-112.35203  	-1.26491  	55.25287  	58.29369  	-19681.04505  	-4203.83353  	0.00430  	0.00002  	0.00411  	0.00441  	0.00489  	0.00000  	0.00000  
109.83914  	33.33448  	5.05648  	5.31190  	24.47958  	-1.18512  	0.02143  	0.19704  	0.17486  	-3.02442  	0.03249  	-0.08578  	-112.29187  	-1.26623  	51.60681  	58.15389  	-19682.30007  	-4203.81374  	0.00428  	0.00002  	0.00410  	0.00441  	0.00488  	0.00000  	0.00000  
110.83858  	33.33598  	5.05488  	5.31124  	24.48562  	-1.18512  	0.02223  	0.19614  	0.18664  	-3.02442  	0.02978  	-0.08575  	-112.23437  	-1.27088  	55.08358  	57.88971  	-19683.93463  	-4203.67815  	0.00430  	0.00002  	0.00410  	0.00443  	0.00488  	0.00000  	0.00000  
111.83934  	33.33763  	5.05583  	5.31198  	24.49419  	-1.18512  	0.02089  	0.19887  	0.19405  	-3.02442  	0.02983  	-0.08568  	-112.14654  	-1.26986  	57.27179  	58.69358  	-19686.14950  	-4203.77980  	0.00431  	0.00003  	0.00410  	0.00440  	0.00489  	0.00000  	0.00000  
112.83845  	33.33875  	5.05439  	5.31230  	24.50130  	-1.18512  	0.02046  	0.19887  	0.18172  	-3.02442  	0.03197  	-0.08582  	-112.07071  	-1.27861  	53.63245  	58.69465  	-19687.93388  	-4203.71260  	0.00429  	0.00002  	0.00410  	0.00439  	0.00489  	0.00000  	0.00000  
113.83960  	33.34102  	5.05452  	5.31297  	24.50965  	-1.18512  	0.02071  	0.19633  	0.19042  	-3.02442  	0.03244  	-0.08572  	-111.99360  	-1.28123  	56.19925  	57.94507  	-19690.23611  	-4203.76061  	0.00430  	0.00003  	0.00410  	0.00440  	0.00488  	0.00000  	0.00000  
114.84143  	33.34195  	5.05468  	5.31322  	24.51758  	-1.18512  	0.02127  	0.19761  	0.19040  	-3.02442  	0.03072  	-0.08578  	-111.90481  	-1.28168  	56.19341  	58.32264  	-19692.15622  	-4203.78541  	0.00430  	0.00002  	0.00410  	0.00441  	0.00489  	0.00000  	0.00000  
