11/01/2024 09:32:27Time	T_hot_in(C)	T_cold_in(C)	T_cold_out(C)	T_hot_out(C)	mdot_cold(kg/s)	ASFASIFUAS(kg/s)	Diferencial_cold(bar)	Diferencial_hot(bar)	mdot_hot(kg/s)	ABS_cold(bar)	ABS_hot(bar)	q_cold(kW)	q_hot(kW)	ASFASYFY	Tau_cold_haste	Re_hot	Re_cold	U_global	PSIG_cold(bar)	R_fouling	PSIG_hot(bar)	PSID_hot(bar)	m_dot_hot	PSID_cold(bar)	m_dot_cold
1.74405  	0.00000  	0.00000  	0.00000  	0.00000  	-1.18512  	-0.20833  	-0.86278  	-2.50000  	-3.02442  	-1.25000  	-0.08628  	-0.00000  	-0.00000  	-737.84722  	-254.63905  	-9234.48090  	-3618.55272  	0.00000  	0.00000  	0.00000  	0.00000  	0.00000  	0.00000  	0.00000  
2.74493  	33.22487  	5.24681  	5.52759  	26.92984  	-1.18512  	0.03662  	0.43965  	0.44866  	-3.02442  	0.03016  	-0.08579  	-79.82222  	-1.39194  	132.41602  	129.75774  	-20191.74269  	-4228.19688  	0.00472  	0.00002  	0.00410  	0.00470  	0.00600  	0.00000  	0.00000  
3.74575  	33.22647  	5.24652  	5.52826  	26.93378  	-1.18512  	0.03569  	0.44070  	0.45837  	-3.02442  	0.02891  	-0.08564  	-79.79260  	-1.39670  	135.28313  	130.06734  	-20192.95114  	-4228.21992  	0.00473  	0.00003  	0.00409  	0.00469  	0.00601  	0.00000  	0.00000  
4.74595  	33.23084  	5.24683  	5.52873  	26.94013  	-1.18512  	0.03562  	0.44521  	0.45719  	-3.02442  	0.02963  	-0.08571  	-79.76742  	-1.39749  	134.93459  	131.39963  	-20195.29389  	-4228.26705  	0.00473  	0.00003  	0.00409  	0.00468  	0.00603  	0.00000  	0.00000  
5.74753  	33.23395  	5.24633  	5.52780  	26.94517  	-1.18512  	0.03830  	0.44451  	0.46006  	-3.02442  	0.02928  	-0.08578  	-79.74304  	-1.39536  	135.78158  	131.19299  	-20197.07532  	-4228.18049  	0.00474  	0.00002  	0.00409  	0.00474  	0.00602  	0.00000  	0.00000  
6.74753  	33.23734  	5.24676  	5.52769  	26.95002  	-1.18512  	0.03929  	0.44657  	0.45713  	-3.02442  	0.03158  	-0.08583  	-79.72439  	-1.39269  	134.91769  	131.79870  	-20198.87670  	-4228.19975  	0.00473  	0.00002  	0.00410  	0.00475  	0.00603  	0.00000  	0.00000  
7.74754  	33.24076  	5.24648  	5.52751  	26.95635  	-1.18512  	0.03887  	0.44584  	0.46009  	-3.02442  	0.02865  	-0.08580  	-79.68762  	-1.39315  	135.79150  	131.58542  	-20201.00858  	-4228.17258  	0.00474  	0.00002  	0.00409  	0.00475  	0.00603  	0.00000  	0.00000  
8.74753  	33.24494  	5.24579  	5.52741  	26.96266  	-1.18512  	0.03761  	0.44800  	0.46452  	-3.02442  	0.02959  	-0.08579  	-79.66060  	-1.39609  	137.09692  	132.22154  	-20203.29946  	-4228.12447  	0.00474  	0.00002  	0.00409  	0.00472  	0.00604  	0.00000  	0.00000  
9.74736  	33.24863  	5.24585  	5.52788  	26.96825  	-1.18512  	0.03748  	0.44865  	0.45819  	-3.02442  	0.03025  	-0.08579  	-79.63650  	-1.39815  	135.22974  	132.41365  	-20205.33017  	-4228.15709  	0.00473  	0.00002  	0.00410  	0.00472  	0.00604  	0.00000  	0.00000  
10.74963  	33.25192  	5.24518  	5.52713  	26.97443  	-1.18512  	0.03671  	0.45078  	0.46657  	-3.02442  	0.02748  	-0.08585  	-79.59995  	-1.39776  	137.70334  	133.04129  	-20207.39707  	-4228.07133  	0.00475  	0.00002  	0.00409  	0.00470  	0.00605  	0.00000  	0.00000  
11.75062  	33.25665  	5.24440  	5.52655  	26.98134  	-1.18512  	0.03632  	0.44952  	0.46246  	-3.02442  	0.03184  	-0.08578  	-79.57235  	-1.39871  	136.48905  	132.67109  	-20209.94258  	-4227.98972  	0.00474  	0.00002  	0.00410  	0.00470  	0.00605  	0.00000  	0.00000  
12.75029  	33.26034  	5.24361  	5.52676  	26.98744  	-1.18512  	0.03709  	0.45112  	0.46904  	-3.02442  	0.02928  	-0.08573  	-79.54171  	-1.40365  	138.43276  	133.14382  	-20212.08022  	-4227.95424  	0.00475  	0.00003  	0.00409  	0.00471  	0.00605  	0.00000  	0.00000  
13.75250  	33.26344  	5.24377  	5.52741  	26.99385  	-1.18512  	0.03549  	0.45084  	0.46637  	-3.02442  	0.03166  	-0.08582  	-79.49975  	-1.40609  	137.64356  	133.05932  	-20214.15927  	-4228.00322  	0.00475  	0.00002  	0.00410  	0.00468  	0.00605  	0.00000  	0.00000  
14.75343  	33.26790  	5.24375  	5.52728  	27.00022  	-1.18512  	0.03801  	0.45293  	0.46855  	-3.02442  	0.03216  	-0.08577  	-79.47548  	-1.40556  	138.28673  	133.67619  	-20216.52778  	-4227.99455  	0.00475  	0.00002  	0.00410  	0.00473  	0.00606  	0.00000  	0.00000  
15.75347  	33.27139  	5.24397  	5.52755  	27.00745  	-1.18512  	0.03649  	0.45391  	0.46800  	-3.02442  	0.02825  	-0.08583  	-79.42805  	-1.40582  	138.12411  	133.96509  	-20218.87237  	-4228.02409  	0.00475  	0.00002  	0.00409  	0.00470  	0.00607  	0.00000  	0.00000  
16.75383  	33.27602  	5.24277  	5.52774  	27.01376  	-1.18512  	0.03711  	0.45226  	0.46949  	-3.02442  	0.03011  	-0.08563  	-79.40688  	-1.41274  	138.56507  	133.48072  	-20221.26291  	-4227.96310  	0.00475  	0.00003  	0.00410  	0.00471  	0.00606  	0.00000  	0.00000  
17.75292  	33.27924  	5.24205  	5.52609  	27.02040  	-1.18512  	0.03667  	0.45470  	0.47152  	-3.02442  	0.03059  	-0.08571  	-79.36353  	-1.40806  	139.16433  	134.19945  	-20223.41934  	-4227.82044  	0.00475  	0.00003  	0.00410  	0.00470  	0.00607  	0.00000  	0.00000  
18.75489  	33.28315  	5.24279  	5.52612  	27.02725  	-1.18512  	0.03668  	0.45470  	0.47146  	-3.02442  	0.03352  	-0.08566  	-79.32625  	-1.40457  	139.14663  	134.19888  	-20225.77098  	-4227.86627  	0.00475  	0.00003  	0.00411  	0.00470  	0.00607  	0.00000  	0.00000  
19.75541  	33.28687  	5.24131  	5.52658  	27.03459  	-1.18512  	0.03765  	0.45702  	0.47149  	-3.02442  	0.03080  	-0.08584  	-79.28030  	-1.41416  	139.15559  	134.88500  	-20228.18975  	-4227.80536  	0.00475  	0.00002  	0.00410  	0.00472  	0.00608  	0.00000  	0.00000  
20.75550  	33.29136  	5.24172  	5.52583  	27.04109  	-1.18512  	0.03826  	0.45596  	0.47416  	-3.02442  	0.03142  	-0.08572  	-79.25477  	-1.40840  	139.94334  	134.57038  	-20230.59152  	-4227.78481  	0.00476  	0.00003  	0.00410  	0.00473  	0.00608  	0.00000  	0.00000  
21.75549  	33.29553  	5.24176  	5.52560  	27.04741  	-1.18512  	0.03550  	0.45633  	0.47441  	-3.02442  	0.03177  	-0.08575  	-79.22763  	-1.40713  	140.01569  	134.68080  	-20232.88468  	-4227.77345  	0.00476  	0.00002  	0.00410  	0.00468  	0.00608  	0.00000  	0.00000  
22.75561  	33.29891  	5.24151  	5.52509  	27.05360  	-1.18512  	0.03880  	0.45784  	0.47212  	-3.02442  	0.03009  	-0.08579  	-79.19192  	-1.40582  	139.34085  	135.12697  	-20234.97714  	-4227.72741  	0.00476  	0.00002  	0.00410  	0.00474  	0.00608  	0.00000  	0.00000  
23.75573  	33.30269  	5.24063  	5.52442  	27.06067  	-1.18512  	0.03825  	0.45536  	0.47615  	-3.02442  	0.03226  	-0.08580  	-79.15024  	-1.40684  	140.53001  	134.39507  	-20237.35060  	-4227.63412  	0.00476  	0.00002  	0.00410  	0.00473  	0.00607  	0.00000  	0.00000  
24.75529  	33.30593  	5.24014  	5.52378  	27.06794  	-1.18512  	0.03646  	0.45358  	0.46860  	-3.02442  	0.03085  	-0.08579  	-79.09929  	-1.40612  	138.30208  	133.86971  	-20239.64819  	-4227.56653  	0.00475  	0.00002  	0.00410  	0.00470  	0.00606  	0.00000  	0.00000  
25.75498  	33.30904  	5.23962  	5.52322  	27.07345  	-1.18512  	0.03640  	0.44967  	0.46367  	-3.02442  	0.03172  	-0.08566  	-79.06872  	-1.40593  	136.84801  	132.71367  	-20241.53292  	-4227.50153  	0.00474  	0.00003  	0.00410  	0.00470  	0.00605  	0.00000  	0.00000  
26.75562  	33.31133  	5.23968  	5.52357  	27.07675  	-1.18512  	0.03591  	0.44462  	0.46025  	-3.02442  	0.03190  	-0.08580  	-79.05591  	-1.40735  	135.83689  	131.22398  	-20242.75451  	-4227.52571  	0.00474  	0.00002  	0.00410  	0.00469  	0.00602  	0.00000  	0.00000  
27.75588  	33.31533  	5.23842  	5.52367  	27.08162  	-1.18512  	0.03677  	0.44314  	0.45687  	-3.02442  	0.02984  	-0.08563  	-79.04487  	-1.41413  	134.83983  	130.78806  	-20244.69519  	-4227.45614  	0.00473  	0.00003  	0.00410  	0.00471  	0.00602  	0.00000  	0.00000  
28.75562  	33.31762  	5.23823  	5.52384  	27.08557  	-1.18512  	0.03587  	0.43818  	0.45261  	-3.02442  	0.03240  	-0.08581  	-79.02394  	-1.41589  	133.58351  	129.32249  	-20246.06055  	-4227.45460  	0.00472  	0.00002  	0.00410  	0.00469  	0.00599  	0.00000  	0.00000  
29.75517  	33.32028  	5.23870  	5.52261  	27.08627  	-1.18512  	0.03671  	0.43326  	0.44588  	-3.02442  	0.03079  	-0.08580  	-79.04875  	-1.40744  	131.59518  	127.87224  	-20246.79412  	-4227.40957  	0.00471  	0.00002  	0.00410  	0.00470  	0.00597  	0.00000  	0.00000  
30.75570  	33.32267  	5.23917  	5.52368  	27.08709  	-1.18512  	0.03698  	0.43073  	0.44527  	-3.02442  	0.02907  	-0.08576  	-79.06869  	-1.41039  	131.41714  	127.12592  	-20247.49664  	-4227.50190  	0.00471  	0.00002  	0.00409  	0.00471  	0.00596  	0.00000  	0.00000  
31.75669  	33.32451  	5.23874  	5.52333  	27.08711  	-1.18512  	0.03409  	0.42557  	0.44159  	-3.02442  	0.02886  	-0.08591  	-79.09170  	-1.41080  	130.33025  	125.60356  	-20247.90195  	-4227.45516  	0.00471  	0.00002  	0.00409  	0.00465  	0.00594  	0.00000  	0.00000  
32.75626  	33.32724  	5.23818  	5.52233  	27.08458  	-1.18512  	0.03457  	0.42141  	0.43045  	-3.02442  	0.03133  	-0.08578  	-79.15853  	-1.40860  	127.04179  	124.37345  	-20247.94675  	-4227.36111  	0.00469  	0.00002  	0.00410  	0.00466  	0.00592  	0.00000  	0.00000  
33.75626  	33.32953  	5.23797  	5.52088  	27.08215  	-1.18512  	0.03559  	0.41825  	0.42868  	-3.02442  	0.02994  	-0.08572  	-79.21827  	-1.40249  	126.51906  	123.44090  	-20247.91758  	-4227.26129  	0.00469  	0.00003  	0.00410  	0.00468  	0.00590  	0.00000  	0.00000  
34.75676  	33.33228  	5.23687  	5.51945  	27.07762  	-1.18512  	0.03513  	0.41823  	0.43505  	-3.02442  	0.02994  	-0.08576  	-79.31066  	-1.40084  	128.39978  	123.43450  	-20247.52758  	-4227.10879  	0.00470  	0.00002  	0.00410  	0.00467  	0.00590  	0.00000  	0.00000  
35.75754  	33.33388  	5.23679  	5.51918  	27.07263  	-1.18512  	0.03578  	0.42227  	0.43554  	-3.02442  	0.02969  	-0.08575  	-79.39424  	-1.39987  	128.54359  	124.62695  	-20246.78786  	-4227.08793  	0.00470  	0.00002  	0.00409  	0.00469  	0.00592  	0.00000  	0.00000  
36.75742  	33.33747  	5.23559  	5.51844  	27.06767  	-1.18512  	0.03497  	0.42401  	0.43887  	-3.02442  	0.03312  	-0.08568  	-79.50270  	-1.40216  	129.52792  	125.14307  	-20246.48454  	-4226.97137  	0.00470  	0.00003  	0.00411  	0.00467  	0.00593  	0.00000  	0.00000  
37.75753  	33.34075  	5.23375  	5.51852  	27.06245  	-1.18512  	0.03655  	0.42722  	0.43714  	-3.02442  	0.03038  	-0.08579  	-79.61058  	-1.41170  	129.01579  	126.08826  	-20246.06202  	-4226.86516  	0.00470  	0.00002  	0.00410  	0.00470  	0.00594  	0.00000  	0.00000  
38.75757  	33.34378  	5.23388  	5.51657  	27.05944  	-1.18512  	0.03529  	0.42830  	0.44014  	-3.02442  	0.03331  	-0.08586  	-79.68715  	-1.40141  	129.90104  	126.40726  	-20246.06546  	-4226.75546  	0.00470  	0.00002  	0.00411  	0.00468  	0.00595  	0.00000  	0.00000  
39.75753  	33.34613  	5.23267  	5.51463  	27.05585  	-1.18512  	0.03527  	0.42943  	0.43491  	-3.02442  	0.02835  	-0.08580  	-79.76257  	-1.39779  	128.35880  	126.74263  	-20245.79418  	-4226.56660  	0.00470  	0.00002  	0.00409  	0.00468  	0.00595  	0.00000  	0.00000  
40.75761  	33.35021  	5.23265  	5.51452  	27.05349  	-1.18512  	0.03571  	0.43026  	0.44208  	-3.02442  	0.02935  	-0.08570  	-79.84417  	-1.39732  	130.47371  	126.98651  	-20246.17063  	-4226.55857  	0.00471  	0.00003  	0.00409  	0.00469  	0.00596  	0.00000  	0.00000  
41.75753  	33.35280  	5.23170  	5.51357  	27.05293  	-1.18512  	0.03671  	0.43251  	0.44495  	-3.02442  	0.02994  	-0.08576  	-79.88403  	-1.39735  	131.32193  	127.64977  	-20246.61545  	-4226.44408  	0.00471  	0.00002  	0.00410  	0.00470  	0.00597  	0.00000  	0.00000  
42.75744  	33.35590  	5.22962  	5.51318  	27.05342  	-1.18512  	0.03600  	0.43449  	0.44685  	-3.02442  	0.03241  	-0.08585  	-79.91733  	-1.40572  	131.88353  	128.23346  	-20247.40147  	-4226.29585  	0.00471  	0.00002  	0.00410  	0.00469  	0.00598  	0.00000  	0.00000  
43.75972  	33.35956  	5.22896  	5.51204  	27.05355  	-1.18512  	0.03675  	0.43745  	0.44298  	-3.02442  	0.03049  	-0.08572  	-79.96214  	-1.40337  	130.74109  	129.10720  	-20248.22890  	-4226.18713  	0.00471  	0.00003  	0.00410  	0.00471  	0.00599  	0.00000  	0.00000  
44.75977  	33.36362  	5.22770  	5.51152  	27.05454  	-1.18512  	0.03539  	0.43702  	0.44670  	-3.02442  	0.03122  	-0.08586  	-80.00096  	-1.40700  	131.83873  	128.98033  	-20249.33454  	-4226.07955  	0.00471  	0.00002  	0.00410  	0.00468  	0.00599  	0.00000  	0.00000  
45.76111  	33.36631  	5.22696  	5.51071  	27.05709  	-1.18512  	0.03605  	0.44013  	0.45615  	-3.02442  	0.02985  	-0.08582  	-80.00285  	-1.40662  	134.62873  	129.89829  	-20250.47943  	-4225.98662  	0.00473  	0.00002  	0.00410  	0.00469  	0.00600  	0.00000  	0.00000  
46.76184  	33.36986  	5.22613  	5.51016  	27.06052  	-1.18512  	0.03679  	0.44047  	0.45602  	-3.02442  	0.03029  	-0.08576  	-80.00449  	-1.40808  	134.58818  	129.99865  	-20252.00652  	-4225.90367  	0.00473  	0.00002  	0.00410  	0.00471  	0.00600  	0.00000  	0.00000  
47.76362  	33.37239  	5.22518  	5.50965  	27.06283  	-1.18512  	0.03715  	0.44328  	0.45321  	-3.02442  	0.03245  	-0.08572  	-80.00720  	-1.41020  	133.75929  	130.82803  	-20253.06624  	-4225.81602  	0.00473  	0.00003  	0.00410  	0.00471  	0.00602  	0.00000  	0.00000  
48.76379  	33.37576  	5.22472  	5.50843  	27.06745  	-1.18512  	0.03737  	0.44279  	0.45606  	-3.02442  	0.03110  	-0.08581  	-79.99131  	-1.40644  	134.60027  	130.68415  	-20254.81281  	-4225.71523  	0.00473  	0.00002  	0.00410  	0.00472  	0.00602  	0.00000  	0.00000  
49.76431  	33.37868  	5.22406  	5.50832  	27.07214  	-1.18512  	0.03727  	0.44147  	0.46193  	-3.02442  	0.03016  	-0.08570  	-79.96891  	-1.40917  	136.33447  	130.29595  	-20256.47722  	-4225.66892  	0.00474  	0.00003  	0.00410  	0.00472  	0.00601  	0.00000  	0.00000  
50.76569  	33.38158  	5.22265  	5.50807  	27.07600  	-1.18512  	0.03702  	0.44312  	0.45819  	-3.02442  	0.03293  	-0.08568  	-79.95685  	-1.41493  	135.23016  	130.78234  	-20257.95594  	-4225.56876  	0.00473  	0.00003  	0.00411  	0.00471  	0.00602  	0.00000  	0.00000  
51.76577  	33.38382  	5.22282  	5.50661  	27.08153  	-1.18512  	0.03655  	0.44225  	0.45880  	-3.02442  	0.03273  	-0.08567  	-79.91512  	-1.40685  	135.40843  	130.52457  	-20259.65413  	-4225.49147  	0.00473  	0.00003  	0.00410  	0.00470  	0.00601  	0.00000  	0.00000  
52.76627  	33.38670  	5.22230  	5.50618  	27.08724  	-1.18512  	0.03449  	0.44339  	0.45150  	-3.02442  	0.02915  	-0.08584  	-79.87932  	-1.40729  	133.25577  	130.86142  	-20261.53366  	-4225.43382  	0.00472  	0.00002  	0.00409  	0.00466  	0.00602  	0.00000  	0.00000  
53.76682  	33.38977  	5.22200  	5.50606  	27.09215  	-1.18512  	0.03489  	0.44542  	0.46090  	-3.02442  	0.03133  	-0.08570  	-79.85599  	-1.40820  	136.02955  	131.45938  	-20263.27883  	-4225.40887  	0.00474  	0.00003  	0.00410  	0.00467  	0.00603  	0.00000  	0.00000  
54.76707  	33.39189  	5.22166  	5.50549  	27.09758  	-1.18512  	0.03864  	0.44777  	0.46042  	-3.02442  	0.02808  	-0.08574  	-79.81395  	-1.40704  	135.88855  	132.15324  	-20264.92927  	-4225.35355  	0.00474  	0.00003  	0.00409  	0.00474  	0.00604  	0.00000  	0.00000  
55.76733  	33.39523  	5.22100  	5.50374  	27.10205  	-1.18512  	0.03858  	0.44674  	0.46038  	-3.02442  	0.02864  	-0.08585  	-79.79968  	-1.40163  	135.87546  	131.85164  	-20266.63858  	-4225.20881  	0.00474  	0.00002  	0.00409  	0.00474  	0.00603  	0.00000  	0.00000  
56.76692  	33.39729  	5.21986  	5.50269  	27.10875  	-1.18512  	0.03782  	0.44893  	0.46029  	-3.02442  	0.02961  	-0.08583  	-79.74091  	-1.40210  	135.84900  	132.49549  	-20268.55511  	-4225.07683  	0.00474  	0.00002  	0.00409  	0.00473  	0.00604  	0.00000  	0.00000  
57.76764  	33.40025  	5.21901  	5.50217  	27.11421  	-1.18512  	0.03667  	0.44902  	0.46789  	-3.02442  	0.03078  	-0.08584  	-79.70917  	-1.40370  	138.09366  	132.52226  	-20270.39722  	-4224.99490  	0.00475  	0.00002  	0.00410  	0.00470  	0.00604  	0.00000  	0.00000  
58.76743  	33.40321  	5.21912  	5.50172  	27.11914  	-1.18512  	0.03784  	0.44986  	0.46338  	-3.02442  	0.03013  	-0.08585  	-79.68417  	-1.40097  	136.76049  	132.77214  	-20272.12279  	-4224.97443  	0.00474  	0.00002  	0.00410  	0.00473  	0.00605  	0.00000  	0.00000  
59.76753  	33.40604  	5.21798  	5.50237  	27.12425  	-1.18512  	0.03696  	0.45158  	0.46571  	-3.02442  	0.02930  	-0.08585  	-79.65531  	-1.40980  	137.44962  	133.27888  	-20273.86301  	-4224.94500  	0.00475  	0.00002  	0.00409  	0.00471  	0.00606  	0.00000  	0.00000  
60.76753  	33.40994  	5.21778  	5.50166  	27.13140  	-1.18512  	0.03818  	0.45276  	0.46668  	-3.02442  	0.02997  	-0.08584  	-79.61419  	-1.40729  	137.73411  	133.62584  	-20276.27828  	-4224.89039  	0.00475  	0.00002  	0.00410  	0.00473  	0.00606  	0.00000  	0.00000  
61.76734  	33.41242  	5.21613  	5.50192  	27.13652  	-1.18512  	0.03709  	0.45353  	0.47069  	-3.02442  	0.03241  	-0.08562  	-79.58068  	-1.41677  	138.91757  	133.85525  	-20277.94096  	-4224.80637  	0.00475  	0.00003  	0.00410  	0.00471  	0.00606  	0.00000  	0.00000  
62.76953  	33.41427  	5.21498  	5.50103  	27.14097  	-1.18512  	0.03687  	0.45386  	0.46479  	-3.02442  	0.02949  	-0.08575  	-79.54766  	-1.41806  	137.17894  	133.95128  	-20279.31976  	-4224.68352  	0.00474  	0.00002  	0.00409  	0.00471  	0.00607  	0.00000  	0.00000  
63.76948  	33.41673  	5.21342  	5.49958  	27.14725  	-1.18512  	0.03832  	0.45375  	0.47234  	-3.02442  	0.03135  	-0.08570  	-79.49929  	-1.41858  	139.40524  	133.92035  	-20281.23286  	-4224.50239  	0.00476  	0.00003  	0.00410  	0.00474  	0.00607  	0.00000  	0.00000  
64.77103  	33.42011  	5.21324  	5.49856  	27.15265  	-1.18512  	0.03473  	0.45412  	0.47137  	-3.02442  	0.02956  	-0.08578  	-79.47382  	-1.41442  	139.12065  	134.02872  	-20283.15305  	-4224.43061  	0.00475  	0.00002  	0.00409  	0.00467  	0.00607  	0.00000  	0.00000  
65.77158  	33.42268  	5.21207  	5.49666  	27.15903  	-1.18512  	0.03460  	0.45559  	0.47394  	-3.02442  	0.02919  	-0.08586  	-79.42551  	-1.41084  	139.87727  	134.46147  	-20285.11236  	-4224.24591  	0.00476  	0.00002  	0.00409  	0.00466  	0.00607  	0.00000  	0.00000  
66.77288  	33.42509  	5.21142  	5.49585  	27.16414  	-1.18512  	0.03835  	0.45589  	0.46719  	-3.02442  	0.03040  	-0.08569  	-79.39126  	-1.41005  	137.88530  	134.55048  	-20286.75817  	-4224.15782  	0.00475  	0.00003  	0.00410  	0.00474  	0.00608  	0.00000  	0.00000  
67.77285  	33.42748  	5.21035  	5.49536  	27.16913  	-1.18512  	0.03782  	0.45665  	0.47607  	-3.02442  	0.02951  	-0.08587  	-79.35833  	-1.41291  	140.50535  	134.77591  	-20288.37399  	-4224.06404  	0.00476  	0.00002  	0.00409  	0.00473  	0.00608  	0.00000  	0.00000  
68.77260  	33.42954  	5.20940  	5.49368  	27.17441  	-1.18512  	0.03716  	0.45615  	0.47268  	-3.02442  	0.03025  	-0.08578  	-79.31754  	-1.40924  	139.50682  	134.62865  	-20289.97626  	-4223.90582  	0.00476  	0.00002  	0.00410  	0.00471  	0.00608  	0.00000  	0.00000  
69.77259  	33.43268  	5.20840  	5.49345  	27.17997  	-1.18512  	0.03941  	0.45756  	0.47663  	-3.02442  	0.03448  	-0.08590  	-79.28688  	-1.41309  	140.67282  	135.04301  	-20291.88099  	-4223.83219  	0.00476  	0.00002  	0.00411  	0.00476  	0.00608  	0.00000  	0.00000  
70.77374  	33.43486  	5.20802  	5.49290  	27.18466  	-1.18512  	0.03590  	0.45392  	0.47331  	-3.02442  	0.03205  	-0.08573  	-79.25511  	-1.41226  	139.69213  	133.96854  	-20293.38590  	-4223.77602  	0.00476  	0.00003  	0.00410  	0.00469  	0.00607  	0.00000  	0.00000  
71.77382  	33.43718  	5.20657  	5.49278  	27.18994  	-1.18512  	0.03778  	0.45131  	0.46033  	-3.02442  	0.02987  	-0.08580  	-79.21763  	-1.41888  	135.86248  	133.19847  	-20295.04831  	-4223.68162  	0.00474  	0.00002  	0.00410  	0.00473  	0.00605  	0.00000  	0.00000  
72.77486  	33.43921  	5.20514  	5.49120  	27.19404  	-1.18512  	0.03590  	0.44781  	0.47026  	-3.02442  	0.03112  	-0.08584  	-79.19132  	-1.41808  	138.79227  	132.16669  	-20296.39080  	-4223.50079  	0.00475  	0.00002  	0.00410  	0.00469  	0.00604  	0.00000  	0.00000  
73.77466  	33.44070  	5.20427  	5.49008  	27.19752  	-1.18512  	0.03628  	0.44415  	0.45880  	-3.02442  	0.03424  	-0.08569  	-79.16611  	-1.41689  	135.40867  	131.08671  	-20297.47808  	-4223.38113  	0.00473  	0.00003  	0.00411  	0.00470  	0.00602  	0.00000  	0.00000  
74.77524  	33.44326  	5.20298  	5.48879  	27.20011  	-1.18512  	0.03832  	0.43998  	0.45318  	-3.02442  	0.02852  	-0.08579  	-79.16585  	-1.41685  	133.75192  	129.85668  	-20298.60685  	-4223.22548  	0.00473  	0.00002  	0.00409  	0.00474  	0.00600  	0.00000  	0.00000  
75.77746  	33.44492  	5.20320  	5.48833  	27.20171  	-1.18512  	0.03757  	0.43563  	0.44894  	-3.02442  	0.03140  	-0.08577  	-79.16656  	-1.41349  	132.49936  	128.57272  	-20299.31882  	-4223.21095  	0.00472  	0.00002  	0.00410  	0.00472  	0.00598  	0.00000  	0.00000  
76.77725  	33.44622  	5.20456  	5.48853  	27.20158  	-1.18512  	0.03551  	0.43199  	0.44505  	-3.02442  	0.03299  	-0.08572  	-79.18467  	-1.40774  	131.35156  	127.49850  	-20299.57299  	-4223.30479  	0.00471  	0.00003  	0.00411  	0.00468  	0.00597  	0.00000  	0.00000  
77.77737  	33.44817  	5.20343  	5.48856  	27.20115  	-1.18512  	0.03429  	0.42631  	0.44138  	-3.02442  	0.02960  	-0.08573  	-79.21491  	-1.41347  	130.26716  	125.82193  	-20299.90871  	-4223.23916  	0.00471  	0.00003  	0.00409  	0.00466  	0.00594  	0.00000  	0.00000  
78.77748  	33.44863  	5.20219  	5.48752  	27.19783  	-1.18512  	0.03506  	0.42390  	0.43446  	-3.02442  	0.03016  	-0.08572  	-79.26290  	-1.41451  	128.22607  	125.10847  	-20299.28057  	-4223.10216  	0.00470  	0.00003  	0.00410  	0.00467  	0.00593  	0.00000  	0.00000  
79.77854  	33.45005  	5.20142  	5.48581  	27.19408  	-1.18512  	0.03633  	0.41890  	0.43469  	-3.02442  	0.03136  	-0.08569  	-79.32839  	-1.40980  	128.29438  	123.63478  	-20298.77117  	-4222.95313  	0.00470  	0.00003  	0.00410  	0.00470  	0.00591  	0.00000  	0.00000  
80.77961  	33.45197  	5.20144  	5.48589  	27.18922  	-1.18512  	0.03638  	0.41889  	0.42978  	-3.02442  	0.03173  	-0.08580  	-79.41445  	-1.41010  	126.84343  	123.62930  	-20298.12713  	-4222.95902  	0.00469  	0.00002  	0.00410  	0.00470  	0.00591  	0.00000  	0.00000  
81.77967  	33.45257  	5.20022  	5.48443  	27.18332  	-1.18512  	0.03782  	0.42010  	0.43190  	-3.02442  	0.03107  	-0.08576  	-79.49686  	-1.40896  	127.47097  	123.98746  	-20296.96819  	-4222.79783  	0.00469  	0.00002  	0.00410  	0.00473  	0.00591  	0.00000  	0.00000  
82.77952  	33.45435  	5.19953  	5.48394  	27.17786  	-1.18512  	0.03622  	0.42230  	0.43673  	-3.02442  	0.03118  	-0.08567  	-79.58875  	-1.40994  	128.89620  	124.63764  	-20296.16368  	-4222.72705  	0.00470  	0.00003  	0.00410  	0.00470  	0.00592  	0.00000  	0.00000  
83.77975  	33.45674  	5.19855  	5.48335  	27.17214  	-1.18512  	0.03543  	0.42416  	0.44223  	-3.02442  	0.03057  	-0.08566  	-79.69163  	-1.41183  	130.52046  	125.18564  	-20295.43243  	-4222.63257  	0.00471  	0.00003  	0.00410  	0.00468  	0.00593  	0.00000  	0.00000  
84.77952  	33.45813  	5.19774  	5.48283  	27.16566  	-1.18512  	0.03574  	0.42522  	0.43786  	-3.02442  	0.02997  	-0.08577  	-79.79147  	-1.41328  	129.22933  	125.49946  	-20294.31890  	-4222.55268  	0.00470  	0.00002  	0.00410  	0.00469  	0.00593  	0.00000  	0.00000  
85.77955  	33.45942  	5.19686  	5.48123  	27.16041  	-1.18512  	0.03610  	0.42736  	0.44190  	-3.02442  	0.02878  	-0.08579  	-79.87445  	-1.40972  	130.42109  	126.12949  	-20293.45220  	-4222.40294  	0.00471  	0.00002  	0.00409  	0.00469  	0.00594  	0.00000  	0.00000  
86.77952  	33.46211  	5.19576  	5.48005  	27.15656  	-1.18512  	0.03613  	0.43027  	0.43892  	-3.02442  	0.02956  	-0.08586  	-79.95737  	-1.40934  	129.54283  	126.98876  	-20293.20140  	-4222.26607  	0.00470  	0.00002  	0.00409  	0.00469  	0.00596  	0.00000  	0.00000  
87.77966  	33.46384  	5.19537  	5.47866  	27.15415  	-1.18512  	0.03504  	0.43049  	0.44652  	-3.02442  	0.02887  	-0.08576  	-80.00989  	-1.40435  	131.78482  	127.05452  	-20293.04986  	-4222.15946  	0.00471  	0.00002  	0.00409  	0.00467  	0.00596  	0.00000  	0.00000  
88.77955  	33.46606  	5.19504  	5.47826  	27.15213  	-1.18512  	0.03784  	0.43440  	0.44737  	-3.02442  	0.03064  	-0.08573  	-80.06364  	-1.40402  	132.03546  	128.20822  	-20293.09473  	-4222.11552  	0.00472  	0.00003  	0.00410  	0.00473  	0.00598  	0.00000  	0.00000  
89.77961  	33.46728  	5.19304  	5.47725  	27.15041  	-1.18512  	0.03594  	0.43445  	0.44428  	-3.02442  	0.02957  	-0.08575  	-80.10099  	-1.40896  	131.12576  	128.22381  	-20292.98392  	-4221.93457  	0.00471  	0.00002  	0.00409  	0.00469  	0.00598  	0.00000  	0.00000  
90.77959  	33.46914  	5.19243  	5.47710  	27.15041  	-1.18512  	0.03554  	0.43687  	0.44982  	-3.02442  	0.02978  	-0.08572  	-80.12465  	-1.41122  	132.76064  	128.93630  	-20293.39078  	-4221.88831  	0.00472  	0.00003  	0.00410  	0.00468  	0.00599  	0.00000  	0.00000  
91.78066  	33.47125  	5.19199  	5.47542  	27.15259  	-1.18512  	0.03728  	0.43797  	0.45298  	-3.02442  	0.03253  	-0.08573  	-80.12375  	-1.40509  	133.69060  	129.26186  	-20294.32920  	-4221.76108  	0.00472  	0.00003  	0.00410  	0.00472  	0.00599  	0.00000  	0.00000  
92.78064  	33.47393  	5.19039  	5.47516  	27.15349  	-1.18512  	0.03658  	0.43878  	0.45578  	-3.02442  	0.02971  	-0.08571  	-80.14632  	-1.41168  	134.51707  	129.50087  	-20295.11547  	-4221.64967  	0.00473  	0.00003  	0.00410  	0.00470  	0.00600  	0.00000  	0.00000  
93.78117  	33.47506  	5.19006  	5.47443  	27.15556  	-1.18512  	0.03667  	0.44071  	0.45522  	-3.02442  	0.03322  	-0.08582  	-80.13444  	-1.40971  	134.35389  	130.07030  	-20295.81261  	-4221.58538  	0.00473  	0.00002  	0.00411  	0.00470  	0.00601  	0.00000  	0.00000  
94.78212  	33.47596  	5.18855  	5.47284  	27.15719  	-1.18512  	0.03683  	0.43984  	0.45625  	-3.02442  	0.02862  	-0.08577  	-80.12536  	-1.40933  	134.65605  	129.81298  	-20296.36864  	-4221.39901  	0.00473  	0.00002  	0.00409  	0.00471  	0.00600  	0.00000  	0.00000  
95.78233  	33.47821  	5.18816  	5.47190  	27.16080  	-1.18512  	0.03547  	0.44320  	0.45578  	-3.02442  	0.03107  	-0.08585  	-80.10805  	-1.40661  	134.51785  	130.80454  	-20297.65215  	-4221.31975  	0.00473  	0.00002  	0.00410  	0.00468  	0.00602  	0.00000  	0.00000  
96.78266  	33.47988  	5.18686  	5.47077  	27.16419  	-1.18512  	0.03708  	0.44407  	0.45304  	-3.02442  	0.03252  	-0.08579  	-80.08628  	-1.40744  	133.70948  	131.06319  	-20298.75778  	-4221.17380  	0.00472  	0.00002  	0.00410  	0.00471  	0.00602  	0.00000  	0.00000  
97.78271  	33.48176  	5.18639  	5.46992  	27.16809  	-1.18512  	0.03653  	0.44601  	0.46133  	-3.02442  	0.02988  	-0.08576  	-80.06061  	-1.40554  	136.15510  	131.63515  	-20300.02263  	-4221.09401  	0.00474  	0.00002  	0.00410  	0.00470  	0.00603  	0.00000  	0.00000  
98.78585  	33.48299  	5.18602  	5.46906  	27.17157  	-1.18512  	0.03653  	0.44565  	0.46277  	-3.02442  	0.03011  	-0.08571  	-80.03219  	-1.40312  	136.58177  	131.52750  	-20301.05346  	-4221.02047  	0.00474  	0.00003  	0.00410  	0.00470  	0.00603  	0.00000  	0.00000  
99.78488  	33.48351  	5.18358  	5.46751  	27.17608  	-1.18512  	0.03745  	0.44619  	0.46066  	-3.02442  	0.03255  	-0.08573  	-79.98170  	-1.40753  	135.96003  	131.68813  	-20302.15521  	-4220.77976  	0.00474  	0.00003  	0.00410  	0.00472  	0.00603  	0.00000  	0.00000  
100.78550  	33.48477  	5.18248  	5.46751  	27.18027  	-1.18512  	0.03603  	0.44436  	0.46462  	-3.02442  	0.03097  	-0.08574  	-79.94447  	-1.41302  	137.12646  	131.14793  	-20303.34738  	-4220.71408  	0.00474  	0.00003  	0.00410  	0.00469  	0.00602  	0.00000  	0.00000  
101.78564  	33.48692  	5.18166  	5.46564  	27.18579  	-1.18512  	0.03486  	0.44732  	0.46633  	-3.02442  	0.03405  	-0.08576  	-79.90182  	-1.40780  	137.63203  	132.02005  	-20305.02649  	-4220.55205  	0.00475  	0.00002  	0.00411  	0.00467  	0.00604  	0.00000  	0.00000  
102.78579  	33.48821  	5.18147  	5.46558  	27.19012  	-1.18512  	0.03685  	0.44667  	0.46661  	-3.02442  	0.02929  	-0.08582  	-79.86330  	-1.40843  	137.71341  	131.82827  	-20306.25766  	-4220.53766  	0.00475  	0.00002  	0.00409  	0.00471  	0.00603  	0.00000  	0.00000  
103.78502  	33.48884  	5.17987  	5.46415  	27.19443  	-1.18512  	0.03706  	0.44829  	0.46035  	-3.02442  	0.03050  	-0.08584  	-79.81664  	-1.40928  	135.86703  	132.30890  	-20307.33750  	-4220.35536  	0.00474  	0.00002  	0.00410  	0.00471  	0.00604  	0.00000  	0.00000  
104.78581  	33.49151  	5.17817  	5.46339  	27.19906  	-1.18512  	0.03799  	0.44997  	0.46234  	-3.02442  	0.03102  	-0.08580  	-79.79173  	-1.41394  	136.45458  	132.80469  	-20308.93594  	-4220.20781  	0.00474  	0.00002  	0.00410  	0.00473  	0.00605  	0.00000  	0.00000  
105.78516  	33.49177  	5.17776  	5.46197  	27.20208  	-1.18512  	0.03859  	0.45038  	0.46596  	-3.02442  	0.02960  	-0.08580  	-79.75682  	-1.40892  	137.52355  	132.92582  	-20309.65406  	-4220.09722  	0.00475  	0.00002  	0.00409  	0.00474  	0.00605  	0.00000  	0.00000  
106.78648  	33.49344  	5.17703  	5.46131  	27.20628  	-1.18512  	0.03652  	0.44950  	0.47034  	-3.02442  	0.03110  	-0.08573  	-79.72477  	-1.40927  	138.81641  	132.66595  	-20310.93925  	-4220.01331  	0.00475  	0.00003  	0.00410  	0.00470  	0.00605  	0.00000  	0.00000  
107.78705  	33.49499  	5.17696  	5.46002  	27.21055  	-1.18512  	0.03869  	0.45317  	0.46565  	-3.02442  	0.03062  	-0.08577  	-79.69047  	-1.40322  	137.43000  	133.74698  	-20312.21247  	-4219.93201  	0.00475  	0.00002  	0.00410  	0.00474  	0.00606  	0.00000  	0.00000  
108.78756  	33.49615  	5.17548  	5.46035  	27.21537  	-1.18512  	0.03815  	0.45261  	0.46701  	-3.02442  	0.03231  	-0.08583  	-79.64401  	-1.41218  	137.83284  	133.58244  	-20313.52049  	-4219.86313  	0.00475  	0.00002  	0.00410  	0.00473  	0.00606  	0.00000  	0.00000  
109.78732  	33.49685  	5.17462  	5.45899  	27.21970  	-1.18512  	0.03649  	0.45396  	0.47528  	-3.02442  	0.02981  	-0.08580  	-79.59799  	-1.40970  	140.27237  	133.98229  	-20314.62150  	-4219.72972  	0.00476  	0.00002  	0.00410  	0.00470  	0.00607  	0.00000  	0.00000  
