11/01/2024 09:14:53Time	T_hot_in(C)	T_cold_in(C)	T_cold_out(C)	T_hot_out(C)	mdot_cold(kg/s)	ASFASIFUAS(kg/s)	Diferencial_cold(bar)	Diferencial_hot(bar)	mdot_hot(kg/s)	ABS_cold(bar)	ABS_hot(bar)	q_cold(kW)	q_hot(kW)	ASFASYFY	Tau_cold_haste	Re_hot	Re_cold	U_global	PSIG_cold(bar)	R_fouling	PSIG_hot(bar)	PSID_hot(bar)	m_dot_hot	PSID_cold(bar)	m_dot_cold
1.74921  	0.00000  	0.00000  	0.00000  	0.00000  	-1.18512  	-0.20833  	-0.86278  	-2.50000  	-3.02442  	-1.25000  	-0.08628  	-0.00000  	-0.00000  	-737.84722  	-254.63905  	-9234.48090  	-3618.55272  	0.00000  	0.00000  	0.00000  	0.00000  	0.00000  	0.00000  	0.00000  
2.74930  	33.10475  	5.42309  	5.70893  	27.30948  	-1.18512  	0.04239  	0.54840  	0.57249  	-3.02442  	0.03035  	-0.08571  	-73.47965  	-1.41702  	168.96457  	161.85479  	-20248.47335  	-4249.76526  	0.00492  	0.00003  	0.00410  	0.00481  	0.00650  	0.00000  	0.00000  
3.75019  	33.10569  	5.42131  	5.70774  	27.30872  	-1.18512  	0.04180  	0.54933  	0.57902  	-3.02442  	0.02912  	-0.08572  	-73.50121  	-1.41992  	170.89088  	162.12747  	-20248.51511  	-4249.58573  	0.00493  	0.00003  	0.00409  	0.00480  	0.00651  	0.00000  	0.00000  
4.74980  	33.10942  	5.41773  	5.70478  	27.30883  	-1.18512  	0.04237  	0.55281  	0.57805  	-3.02442  	0.03186  	-0.08574  	-73.54720  	-1.42300  	170.60613  	163.15551  	-20249.35254  	-4249.19018  	0.00492  	0.00002  	0.00410  	0.00481  	0.00652  	0.00000  	0.00000  
5.75030  	33.11134  	5.41598  	5.70234  	27.30888  	-1.18512  	0.04245  	0.55374  	0.58001  	-3.02442  	0.03045  	-0.08573  	-73.57092  	-1.41958  	171.18405  	163.42965  	-20249.78492  	-4248.93711  	0.00493  	0.00003  	0.00410  	0.00481  	0.00653  	0.00000  	0.00000  
6.75116  	33.11332  	5.41429  	5.69968  	27.30937  	-1.18512  	0.04397  	0.55352  	0.58017  	-3.02442  	0.03089  	-0.08577  	-73.58996  	-1.41478  	171.23196  	163.36425  	-20250.32412  	-4248.67389  	0.00493  	0.00002  	0.00410  	0.00484  	0.00653  	0.00000  	0.00000  
7.75134  	33.11611  	5.41111  	5.69785  	27.31070  	-1.18512  	0.04246  	0.55543  	0.58426  	-3.02442  	0.02917  	-0.08586  	-73.60859  	-1.42147  	172.43824  	163.92770  	-20251.22554  	-4248.37136  	0.00493  	0.00002  	0.00409  	0.00482  	0.00653  	0.00000  	0.00000  
8.75209  	33.11791  	5.40947  	5.69630  	27.31292  	-1.18512  	0.04341  	0.55575  	0.58480  	-3.02442  	0.03341  	-0.08581  	-73.60325  	-1.42191  	172.59743  	164.02342  	-20252.10316  	-4248.17888  	0.00494  	0.00002  	0.00411  	0.00483  	0.00654  	0.00000  	0.00000  
9.75241  	33.11995  	5.40734  	5.69458  	27.31451  	-1.18512  	0.04342  	0.55900  	0.58767  	-3.02442  	0.03303  	-0.08587  	-73.60908  	-1.42396  	173.44322  	164.98371  	-20252.89834  	-4247.94654  	0.00494  	0.00002  	0.00411  	0.00483  	0.00655  	0.00000  	0.00000  
10.75170  	33.12215  	5.40563  	5.69289  	27.31711  	-1.18512  	0.04445  	0.55902  	0.58914  	-3.02442  	0.03208  	-0.08579  	-73.60399  	-1.42409  	173.87819  	164.98824  	-20253.94778  	-4247.74111  	0.00494  	0.00002  	0.00410  	0.00485  	0.00655  	0.00000  	0.00000  
11.75390  	33.12412  	5.40419  	5.68965  	27.32045  	-1.18512  	0.04043  	0.56012  	0.58580  	-3.02442  	0.02794  	-0.08581  	-73.58668  	-1.41510  	172.89103  	165.31398  	-20255.10883  	-4247.45848  	0.00494  	0.00002  	0.00409  	0.00478  	0.00656  	0.00000  	0.00000  
12.75516  	33.12665  	5.40185  	5.68716  	27.32310  	-1.18512  	0.04309  	0.56241  	0.59163  	-3.02442  	0.03129  	-0.08573  	-73.58525  	-1.41438  	174.61441  	165.98783  	-20256.24124  	-4247.16656  	0.00495  	0.00003  	0.00410  	0.00483  	0.00657  	0.00000  	0.00000  
13.75629  	33.12872  	5.39915  	5.68497  	27.32669  	-1.18512  	0.04220  	0.56208  	0.58653  	-3.02442  	0.03104  	-0.08577  	-73.56611  	-1.41690  	173.10809  	165.89276  	-20257.48067  	-4246.87095  	0.00494  	0.00002  	0.00410  	0.00481  	0.00656  	0.00000  	0.00000  
14.75717  	33.13037  	5.39737  	5.68372  	27.32983  	-1.18512  	0.04567  	0.56301  	0.58527  	-3.02442  	0.03068  	-0.08580  	-73.54719  	-1.41953  	172.73489  	166.16584  	-20258.52719  	-4246.68865  	0.00494  	0.00002  	0.00410  	0.00488  	0.00657  	0.00000  	0.00000  
15.75747  	33.13196  	5.39511  	5.68162  	27.33318  	-1.18512  	0.04376  	0.56244  	0.59279  	-3.02442  	0.03340  	-0.08583  	-73.52492  	-1.42038  	174.95529  	165.99855  	-20259.60940  	-4246.42489  	0.00495  	0.00002  	0.00411  	0.00484  	0.00657  	0.00000  	0.00000  
16.75761  	33.13544  	5.39268  	5.67874  	27.33726  	-1.18512  	0.04288  	0.56241  	0.59531  	-3.02442  	0.03005  	-0.08572  	-73.51742  	-1.41809  	175.70041  	165.98786  	-20261.26162  	-4246.10447  	0.00495  	0.00003  	0.00410  	0.00482  	0.00657  	0.00000  	0.00000  
17.75774  	33.13606  	5.39080  	5.67750  	27.34041  	-1.18512  	0.04099  	0.56629  	0.59269  	-3.02442  	0.03153  	-0.08579  	-73.48536  	-1.42128  	174.92702  	167.13328  	-20262.08638  	-4245.91540  	0.00495  	0.00002  	0.00410  	0.00479  	0.00658  	0.00000  	0.00000  
18.75874  	33.13848  	5.38902  	5.67603  	27.34378  	-1.18512  	0.04091  	0.56560  	0.59172  	-3.02442  	0.03121  	-0.08578  	-73.47349  	-1.42283  	174.63957  	166.93198  	-20263.35459  	-4245.71946  	0.00495  	0.00002  	0.00410  	0.00479  	0.00658  	0.00000  	0.00000  
19.75958  	33.14031  	5.38619  	5.67401  	27.34881  	-1.18512  	0.04430  	0.56696  	0.59823  	-3.02442  	0.03149  	-0.08575  	-73.43293  	-1.42682  	176.56139  	167.33079  	-20264.85605  	-4245.42681  	0.00496  	0.00002  	0.00410  	0.00485  	0.00659  	0.00000  	0.00000  
20.76030  	33.14207  	5.38310  	5.67139  	27.35106  	-1.18512  	0.04375  	0.56724  	0.59795  	-3.02442  	0.03112  	-0.08576  	-73.42681  	-1.42919  	176.47879  	167.41355  	-20265.73244  	-4245.08184  	0.00496  	0.00002  	0.00410  	0.00484  	0.00659  	0.00000  	0.00000  
21.75996  	33.14402  	5.38218  	5.66934  	27.35425  	-1.18512  	0.04122  	0.56699  	0.59407  	-3.02442  	0.02837  	-0.08583  	-73.41113  	-1.42354  	175.33362  	167.34153  	-20266.85403  	-4244.90300  	0.00495  	0.00002  	0.00409  	0.00479  	0.00659  	0.00000  	0.00000  
22.76048  	33.14660  	5.38041  	5.66685  	27.35820  	-1.18512  	0.04339  	0.56866  	0.59900  	-3.02442  	0.03046  	-0.08570  	-73.39380  	-1.42001  	176.78901  	167.83292  	-20268.28272  	-4244.64569  	0.00496  	0.00003  	0.00410  	0.00483  	0.00660  	0.00000  	0.00000  
23.76080  	33.14742  	5.37751  	5.66434  	27.36209  	-1.18512  	0.04664  	0.56691  	0.59624  	-3.02442  	0.03066  	-0.08584  	-73.35490  	-1.42191  	175.97460  	167.31749  	-20269.31470  	-4244.31918  	0.00495  	0.00002  	0.00410  	0.00490  	0.00659  	0.00000  	0.00000  
24.76128  	33.15018  	5.37535  	5.66230  	27.36609  	-1.18512  	0.04267  	0.56867  	0.59568  	-3.02442  	0.03083  	-0.08574  	-73.33941  	-1.42250  	175.80805  	167.83666  	-20270.79303  	-4244.06573  	0.00495  	0.00002  	0.00410  	0.00482  	0.00660  	0.00000  	0.00000  
25.76342  	33.15148  	5.37220  	5.65998  	27.37023  	-1.18512  	0.04253  	0.56960  	0.59945  	-3.02442  	0.03212  	-0.08585  	-73.30350  	-1.42665  	176.91964  	168.11252  	-20271.98381  	-4243.73480  	0.00496  	0.00002  	0.00410  	0.00482  	0.00660  	0.00000  	0.00000  
26.76318  	33.15323  	5.37012  	5.65809  	27.37336  	-1.18512  	0.04276  	0.56948  	0.59952  	-3.02442  	0.03020  	-0.08586  	-73.28588  	-1.42756  	176.94130  	168.07467  	-20273.05139  	-4243.49556  	0.00496  	0.00002  	0.00410  	0.00482  	0.00660  	0.00000  	0.00000  
27.76418  	33.15596  	5.36847  	5.65600  	27.37687  	-1.18512  	0.04361  	0.57070  	0.59458  	-3.02442  	0.02712  	-0.08577  	-73.27609  	-1.42539  	175.48434  	168.43713  	-20274.41789  	-4243.26958  	0.00495  	0.00002  	0.00409  	0.00484  	0.00660  	0.00000  	0.00000  
28.76424  	33.15740  	5.36519  	5.65415  	27.37894  	-1.18512  	0.04461  	0.57071  	0.60213  	-3.02442  	0.03148  	-0.08576  	-73.26812  	-1.43248  	177.71207  	168.43913  	-20275.18478  	-4242.95988  	0.00496  	0.00002  	0.00410  	0.00486  	0.00660  	0.00000  	0.00000  
29.76480  	33.15918  	5.36317  	5.65227  	27.38248  	-1.18512  	0.04556  	0.57368  	0.60060  	-3.02442  	0.03085  	-0.08587  	-73.24596  	-1.43318  	177.26125  	169.31533  	-20276.34739  	-4242.72499  	0.00496  	0.00002  	0.00410  	0.00487  	0.00662  	0.00000  	0.00000  
30.76690  	33.16161  	5.36126  	5.65066  	27.38544  	-1.18512  	0.04557  	0.57085  	0.60506  	-3.02442  	0.02946  	-0.08577  	-73.23925  	-1.43465  	178.57686  	168.48111  	-20277.52877  	-4242.51182  	0.00497  	0.00002  	0.00409  	0.00487  	0.00661  	0.00000  	0.00000  
31.76918  	33.16423  	5.35902  	5.64835  	27.38870  	-1.18512  	0.04360  	0.57311  	0.60171  	-3.02442  	0.03095  	-0.08577  	-73.23125  	-1.43429  	177.58767  	169.14812  	-20278.81229  	-4242.23775  	0.00496  	0.00002  	0.00410  	0.00484  	0.00662  	0.00000  	0.00000  
32.76919  	33.16581  	5.35644  	5.64425  	27.39272  	-1.18512  	0.04395  	0.57416  	0.59976  	-3.02442  	0.03140  	-0.08584  	-73.20043  	-1.42680  	177.01209  	169.45842  	-20280.04086  	-4241.83457  	0.00496  	0.00002  	0.00410  	0.00484  	0.00662  	0.00000  	0.00000  
33.76875  	33.16755  	5.35442  	5.64168  	27.39575  	-1.18512  	0.04228  	0.57264  	0.60223  	-3.02442  	0.02973  	-0.08574  	-73.18412  	-1.42405  	177.74116  	169.00836  	-20281.08447  	-4241.55793  	0.00496  	0.00003  	0.00410  	0.00481  	0.00661  	0.00000  	0.00000  
34.77020  	33.17024  	5.35210  	5.63971  	27.39916  	-1.18512  	0.04369  	0.57439  	0.60675  	-3.02442  	0.03239  	-0.08575  	-73.17509  	-1.42577  	179.07455  	169.52417  	-20282.41843  	-4241.29912  	0.00497  	0.00002  	0.00410  	0.00484  	0.00662  	0.00000  	0.00000  
35.76963  	33.17256  	5.34950  	5.63867  	27.40286  	-1.18512  	0.04403  	0.57339  	0.60050  	-3.02442  	0.03119  	-0.08587  	-73.15764  	-1.43351  	177.23114  	169.22848  	-20283.73591  	-4241.07923  	0.00496  	0.00002  	0.00410  	0.00485  	0.00662  	0.00000  	0.00000  
36.76991  	33.17508  	5.34722  	5.63726  	27.40692  	-1.18512  	0.04353  	0.57572  	0.61380  	-3.02442  	0.03066  	-0.08573  	-73.13826  	-1.43786  	181.15725  	169.91634  	-20285.17469  	-4240.85658  	0.00498  	0.00003  	0.00410  	0.00484  	0.00663  	0.00000  	0.00000  
37.77034  	33.17646  	5.34476  	5.63466  	27.41001  	-1.18512  	0.04506  	0.57528  	0.60158  	-3.02442  	0.03095  	-0.08583  	-73.11655  	-1.43711  	177.54861  	169.78608  	-20286.15371  	-4240.55107  	0.00496  	0.00002  	0.00410  	0.00487  	0.00663  	0.00000  	0.00000  
38.77148  	33.17826  	5.34313  	5.63201  	27.41244  	-1.18512  	0.04371  	0.57609  	0.60244  	-3.02442  	0.03007  	-0.08582  	-73.10873  	-1.43205  	177.80231  	170.02685  	-20287.07843  	-4240.29319  	0.00496  	0.00002  	0.00410  	0.00484  	0.00663  	0.00000  	0.00000  
39.77215  	33.18011  	5.34096  	5.62931  	27.41495  	-1.18512  	0.04518  	0.57694  	0.60512  	-3.02442  	0.03087  	-0.08577  	-73.10038  	-1.42946  	178.59430  	170.27650  	-20288.03141  	-4239.99937  	0.00497  	0.00002  	0.00410  	0.00487  	0.00663  	0.00000  	0.00000  
40.77243  	33.18212  	5.33846  	5.62702  	27.41933  	-1.18512  	0.04649  	0.57736  	0.60798  	-3.02442  	0.03105  	-0.08588  	-73.07034  	-1.43050  	179.43727  	170.40266  	-20289.43184  	-4239.71085  	0.00497  	0.00002  	0.00410  	0.00489  	0.00664  	0.00000  	0.00000  
41.77300  	33.18412  	5.33622  	5.62567  	27.42177  	-1.18512  	0.04630  	0.57852  	0.60886  	-3.02442  	0.02987  	-0.08576  	-73.06476  	-1.43495  	179.69862  	170.74294  	-20290.40216  	-4239.49383  	0.00497  	0.00002  	0.00410  	0.00489  	0.00664  	0.00000  	0.00000  
42.77520  	33.18536  	5.33454  	5.62416  	27.42486  	-1.18512  	0.04344  	0.57902  	0.60690  	-3.02442  	0.03117  	-0.08588  	-73.04143  	-1.43574  	179.12096  	170.89166  	-20291.34896  	-4239.30104  	0.00497  	0.00002  	0.00410  	0.00483  	0.00664  	0.00000  	0.00000  
43.77622  	33.18723  	5.33268  	5.62084  	27.42842  	-1.18512  	0.04537  	0.57893  	0.60876  	-3.02442  	0.03322  	-0.08576  	-73.02012  	-1.42851  	179.67013  	170.86454  	-20292.53999  	-4238.98886  	0.00497  	0.00002  	0.00411  	0.00487  	0.00664  	0.00000  	0.00000  
44.77727  	33.18959  	5.32964  	5.61864  	27.43193  	-1.18512  	0.04379  	0.57814  	0.61214  	-3.02442  	0.02995  	-0.08569  	-73.00558  	-1.43267  	180.66587  	170.63208  	-20293.82290  	-4238.67246  	0.00498  	0.00003  	0.00410  	0.00484  	0.00664  	0.00000  	0.00000  
45.77728  	33.19145  	5.32686  	5.61689  	27.43485  	-1.18512  	0.04524  	0.57961  	0.61259  	-3.02442  	0.02931  	-0.08589  	-72.99222  	-1.43776  	180.79919  	171.06685  	-20294.86959  	-4238.40008  	0.00498  	0.00002  	0.00409  	0.00487  	0.00665  	0.00000  	0.00000  
46.77815  	33.19209  	5.32624  	5.61497  	27.43841  	-1.18512  	0.04462  	0.57812  	0.61347  	-3.02442  	0.02996  	-0.08575  	-72.95517  	-1.43132  	181.05819  	170.62674  	-20295.78898  	-4238.24662  	0.00498  	0.00002  	0.00410  	0.00486  	0.00664  	0.00000  	0.00000  
47.77892  	33.19412  	5.32375  	5.61285  	27.44207  	-1.18512  	0.04547  	0.58099  	0.61353  	-3.02442  	0.03046  	-0.08578  	-72.93456  	-1.43317  	181.07528  	171.47389  	-20297.03425  	-4237.96844  	0.00498  	0.00002  	0.00410  	0.00487  	0.00665  	0.00000  	0.00000  
48.77868  	33.19544  	5.32130  	5.61064  	27.44514  	-1.18512  	0.04387  	0.58038  	0.60533  	-3.02442  	0.02920  	-0.08572  	-72.91244  	-1.43436  	178.65517  	171.29400  	-20297.99380  	-4237.68783  	0.00497  	0.00003  	0.00409  	0.00484  	0.00665  	0.00000  	0.00000  
49.77953  	33.19675  	5.31886  	5.60796  	27.44839  	-1.18512  	0.04305  	0.58102  	0.61604  	-3.02442  	0.03142  	-0.08566  	-72.88799  	-1.43321  	181.81753  	171.48064  	-20298.99181  	-4237.37909  	0.00499  	0.00003  	0.00410  	0.00483  	0.00665  	0.00000  	0.00000  
50.78038  	33.19904  	5.31659  	5.60593  	27.45078  	-1.18512  	0.04138  	0.58073  	0.61900  	-3.02442  	0.03125  	-0.08578  	-72.88684  	-1.43433  	182.69237  	171.39631  	-20300.01795  	-4237.11974  	0.00499  	0.00002  	0.00410  	0.00479  	0.00665  	0.00000  	0.00000  
51.78142  	33.20055  	5.31470  	5.60266  	27.45357  	-1.18512  	0.04493  	0.58278  	0.60858  	-3.02442  	0.02874  	-0.08579  	-72.87058  	-1.42754  	179.61660  	172.00147  	-20300.95733  	-4236.80865  	0.00497  	0.00002  	0.00409  	0.00486  	0.00666  	0.00000  	0.00000  
52.78106  	33.20151  	5.31292  	5.60100  	27.45687  	-1.18512  	0.04517  	0.58346  	0.61448  	-3.02442  	0.03088  	-0.08580  	-72.84107  	-1.42814  	181.35612  	172.20080  	-20301.89129  	-4236.60110  	0.00498  	0.00002  	0.00410  	0.00487  	0.00666  	0.00000  	0.00000  
53.78128  	33.20431  	5.31029  	5.60024  	27.45931  	-1.18512  	0.04449  	0.58389  	0.61779  	-3.02442  	0.03213  	-0.08578  	-72.84558  	-1.43734  	182.33505  	172.33002  	-20303.03772  	-4236.39692  	0.00499  	0.00002  	0.00410  	0.00485  	0.00667  	0.00000  	0.00000  
54.78287  	33.20588  	5.30851  	5.59788  	27.46166  	-1.18512  	0.04367  	0.58381  	0.61446  	-3.02442  	0.03109  	-0.08573  	-72.83594  	-1.43453  	181.35034  	172.30446  	-20303.89509  	-4236.14733  	0.00498  	0.00003  	0.00410  	0.00484  	0.00666  	0.00000  	0.00000  
55.78333  	33.20675  	5.30648  	5.59459  	27.46497  	-1.18512  	0.04369  	0.58513  	0.61787  	-3.02442  	0.03385  	-0.08578  	-72.80503  	-1.42824  	182.35716  	172.69396  	-20304.81049  	-4235.82654  	0.00499  	0.00002  	0.00411  	0.00484  	0.00667  	0.00000  	0.00000  
56.78296  	33.20792  	5.30353  	5.59226  	27.46658  	-1.18512  	0.04391  	0.58538  	0.61320  	-3.02442  	0.03069  	-0.08588  	-72.79958  	-1.43135  	180.98049  	172.76868  	-20305.41809  	-4235.50869  	0.00498  	0.00002  	0.00410  	0.00484  	0.00667  	0.00000  	0.00000  
57.78412  	33.20985  	5.30089  	5.59016  	27.46970  	-1.18512  	0.04438  	0.58413  	0.61331  	-3.02442  	0.03169  	-0.08584  	-72.78443  	-1.43398  	181.01308  	172.39899  	-20306.52327  	-4235.22294  	0.00498  	0.00002  	0.00410  	0.00485  	0.00667  	0.00000  	0.00000  
58.78393  	33.21113  	5.29814  	5.58826  	27.47111  	-1.18512  	0.04292  	0.58571  	0.61698  	-3.02442  	0.03107  	-0.08589  	-72.78294  	-1.43823  	182.09609  	172.86601  	-20307.11140  	-4234.94247  	0.00499  	0.00002  	0.00410  	0.00482  	0.00667  	0.00000  	0.00000  
59.78413  	33.21391  	5.29612  	5.58579  	27.47329  	-1.18512  	0.04450  	0.58540  	0.62075  	-3.02442  	0.03177  	-0.08583  	-72.79049  	-1.43599  	183.20745  	172.77349  	-20308.19855  	-4234.67233  	0.00499  	0.00002  	0.00410  	0.00485  	0.00667  	0.00000  	0.00000  
60.78419  	33.21517  	5.29481  	5.58305  	27.47613  	-1.18512  	0.04469  	0.58539  	0.61429  	-3.02442  	0.03079  	-0.08578  	-72.77051  	-1.42891  	181.30016  	172.77110  	-20309.09570  	-4234.42782  	0.00498  	0.00002  	0.00410  	0.00486  	0.00667  	0.00000  	0.00000  
61.78414  	33.21593  	5.29157  	5.58091  	27.47770  	-1.18512  	0.04309  	0.58531  	0.62045  	-3.02442  	0.03127  	-0.08582  	-72.76045  	-1.43436  	183.11899  	172.74841  	-20309.60639  	-4234.10394  	0.00499  	0.00002  	0.00410  	0.00483  	0.00667  	0.00000  	0.00000  
62.78417  	33.21767  	5.28929  	5.57877  	27.47981  	-1.18512  	0.04431  	0.58602  	0.61510  	-3.02442  	0.02847  	-0.08576  	-72.75587  	-1.43506  	181.53904  	172.95674  	-20310.44879  	-4233.83753  	0.00498  	0.00002  	0.00409  	0.00485  	0.00668  	0.00000  	0.00000  
63.78633  	33.21829  	5.28687  	5.57705  	27.48266  	-1.18512  	0.04489  	0.58514  	0.61986  	-3.02442  	0.03180  	-0.08570  	-72.72755  	-1.43854  	182.94518  	172.69903  	-20311.20907  	-4233.58784  	0.00499  	0.00003  	0.00410  	0.00486  	0.00667  	0.00000  	0.00000  
64.78652  	33.21914  	5.28463  	5.57368  	27.48453  	-1.18512  	0.04385  	0.58435  	0.61087  	-3.02442  	0.03183  	-0.08580  	-72.71471  	-1.43293  	180.29222  	172.46302  	-20311.80286  	-4233.25035  	0.00498  	0.00002  	0.00410  	0.00484  	0.00667  	0.00000  	0.00000  
65.78734  	33.22002  	5.28316  	5.57205  	27.48624  	-1.18512  	0.04366  	0.57988  	0.60581  	-3.02442  	0.02870  	-0.08583  	-72.70426  	-1.43209  	178.79717  	171.14394  	-20312.36902  	-4233.06333  	0.00497  	0.00002  	0.00409  	0.00484  	0.00665  	0.00000  	0.00000  
66.78841  	33.22111  	5.28020  	5.57073  	27.48891  	-1.18512  	0.04474  	0.57512  	0.60464  	-3.02442  	0.03168  	-0.08582  	-72.68425  	-1.44027  	178.45240  	169.74132  	-20313.19439  	-4232.80559  	0.00497  	0.00002  	0.00410  	0.00486  	0.00662  	0.00000  	0.00000  
67.78880  	33.22171  	5.27815  	5.56850  	27.48947  	-1.18512  	0.04384  	0.56756  	0.60000  	-3.02442  	0.03028  	-0.08575  	-72.68487  	-1.43935  	177.08198  	167.50863  	-20313.44695  	-4232.54734  	0.00496  	0.00002  	0.00410  	0.00484  	0.00659  	0.00000  	0.00000  
68.79154  	33.22056  	5.27563  	5.56467  	27.48948  	-1.18512  	0.04402  	0.56375  	0.59492  	-3.02442  	0.03186  	-0.08566  	-72.67021  	-1.43285  	175.58277  	166.38320  	-20313.19795  	-4232.16478  	0.00495  	0.00003  	0.00410  	0.00485  	0.00657  	0.00000  	0.00000  
69.79314  	33.22117  	5.27361  	5.56249  	27.48831  	-1.18512  	0.04273  	0.55816  	0.58424  	-3.02442  	0.02935  	-0.08578  	-72.69285  	-1.43209  	172.43174  	164.73416  	-20313.07605  	-4231.91235  	0.00493  	0.00002  	0.00409  	0.00482  	0.00655  	0.00000  	0.00000  
70.79542  	33.22039  	5.27191  	5.56107  	27.48681  	-1.18512  	0.04379  	0.55001  	0.57296  	-3.02442  	0.03222  	-0.08585  	-72.70194  	-1.43347  	169.10151  	162.33034  	-20312.57613  	-4231.72466  	0.00492  	0.00002  	0.00410  	0.00484  	0.00651  	0.00000  	0.00000  
71.79622  	33.21921  	5.27042  	5.55834  	27.48373  	-1.18512  	0.04134  	0.54178  	0.57138  	-3.02442  	0.02734  	-0.08570  	-72.72626  	-1.42734  	168.63706  	159.90064  	-20311.64457  	-4231.47009  	0.00491  	0.00003  	0.00409  	0.00479  	0.00647  	0.00000  	0.00000  
72.79621  	33.21936  	5.26662  	5.55613  	27.48018  	-1.18512  	0.04280  	0.53654  	0.56087  	-3.02442  	0.03087  	-0.08583  	-72.77318  	-1.43523  	165.53540  	158.35332  	-20310.89980  	-4231.10813  	0.00490  	0.00002  	0.00410  	0.00482  	0.00645  	0.00000  	0.00000  
73.79562  	33.21793  	5.26597  	5.55454  	27.47427  	-1.18512  	0.04291  	0.53393  	0.55862  	-3.02442  	0.02876  	-0.08570  	-72.83003  	-1.43054  	164.87030  	157.58484  	-20309.29329  	-4230.97284  	0.00489  	0.00003  	0.00409  	0.00482  	0.00644  	0.00000  	0.00000  
74.79622  	33.21781  	5.26371  	5.55339  	27.46859  	-1.18512  	0.04293  	0.53579  	0.56546  	-3.02442  	0.02859  	-0.08580  	-72.90061  	-1.43605  	166.88808  	158.13277  	-20308.02104  	-4230.76759  	0.00490  	0.00002  	0.00409  	0.00482  	0.00644  	0.00000  	0.00000  
75.79722  	33.21712  	5.26124  	5.55019  	27.46190  	-1.18512  	0.04085  	0.53862  	0.56667  	-3.02442  	0.03032  	-0.08581  	-72.97673  	-1.43245  	167.24669  	158.96683  	-20306.40672  	-4230.42615  	0.00491  	0.00002  	0.00410  	0.00478  	0.00646  	0.00000  	0.00000  
76.79925  	33.21707  	5.25890  	5.54732  	27.45492  	-1.18512  	0.04081  	0.53863  	0.56616  	-3.02442  	0.03050  	-0.08576  	-73.06478  	-1.42981  	167.09460  	158.96938  	-20304.86985  	-4230.11234  	0.00491  	0.00002  	0.00410  	0.00478  	0.00646  	0.00000  	0.00000  
77.79944  	33.21725  	5.25772  	5.54536  	27.44851  	-1.18512  	0.04207  	0.54309  	0.57565  	-3.02442  	0.03276  	-0.08587  	-73.14841  	-1.42595  	169.89742  	160.28800  	-20303.50631  	-4229.92349  	0.00492  	0.00002  	0.00410  	0.00481  	0.00648  	0.00000  	0.00000  
78.79874  	33.21862  	5.25535  	5.54387  	27.44384  	-1.18512  	0.04171  	0.54412  	0.57025  	-3.02442  	0.03125  	-0.08560  	-73.22500  	-1.43032  	168.30220  	160.59116  	-20302.78199  	-4229.69109  	0.00491  	0.00003  	0.00410  	0.00480  	0.00648  	0.00000  	0.00000  
79.80123  	33.21849  	5.25307  	5.54236  	27.43708  	-1.18512  	0.04268  	0.54635  	0.57239  	-3.02442  	0.03331  	-0.08583  	-73.30910  	-1.43413  	168.93526  	161.24892  	-20301.27419  	-4229.46275  	0.00492  	0.00002  	0.00411  	0.00482  	0.00649  	0.00000  	0.00000  
80.80230  	33.22008  	5.25137  	5.53957  	27.43245  	-1.18512  	0.04123  	0.54798  	0.57570  	-3.02442  	0.03279  	-0.08585  	-73.38798  	-1.42872  	169.91071  	161.73104  	-20300.60977  	-4229.19283  	0.00492  	0.00002  	0.00410  	0.00479  	0.00650  	0.00000  	0.00000  
81.80314  	33.22063  	5.24883  	5.53748  	27.42884  	-1.18512  	0.04092  	0.55008  	0.57768  	-3.02442  	0.02928  	-0.08576  	-73.44094  	-1.43093  	170.49541  	162.34967  	-20299.94013  	-4228.91364  	0.00492  	0.00002  	0.00409  	0.00479  	0.00651  	0.00000  	0.00000  
82.80349  	33.22111  	5.24622  	5.53501  	27.42599  	-1.18512  	0.04332  	0.54985  	0.58370  	-3.02442  	0.03114  	-0.08572  	-73.48318  	-1.43165  	172.27202  	162.28267  	-20299.42072  	-4228.60788  	0.00493  	0.00003  	0.00410  	0.00483  	0.00651  	0.00000  	0.00000  
83.80413  	33.22133  	5.24358  	5.53276  	27.42357  	-1.18512  	0.04211  	0.55182  	0.58291  	-3.02442  	0.03148  	-0.08561  	-73.51674  	-1.43355  	172.04065  	162.86212  	-20298.93876  	-4228.31393  	0.00493  	0.00003  	0.00410  	0.00481  	0.00652  	0.00000  	0.00000  
84.80419  	33.22143  	5.24143  	5.53053  	27.42190  	-1.18512  	0.04051  	0.55208  	0.58401  	-3.02442  	0.02776  	-0.08574  	-73.53923  	-1.43315  	172.36293  	162.93885  	-20298.59465  	-4228.05032  	0.00493  	0.00003  	0.00409  	0.00478  	0.00652  	0.00000  	0.00000  
85.80429  	33.22203  	5.23928  	5.52802  	27.42087  	-1.18512  	0.04334  	0.55401  	0.57666  	-3.02442  	0.02941  	-0.08576  	-73.56006  	-1.43135  	170.19341  	163.51085  	-20298.50299  	-4227.76966  	0.00492  	0.00002  	0.00409  	0.00483  	0.00653  	0.00000  	0.00000  
86.80413  	33.22285  	5.23770  	5.52593  	27.42105  	-1.18512  	0.04442  	0.55452  	0.58073  	-3.02442  	0.03015  	-0.08593  	-73.56813  	-1.42881  	171.39518  	163.66053  	-20298.72073  	-4227.54882  	0.00493  	0.00002  	0.00410  	0.00485  	0.00653  	0.00000  	0.00000  
87.80513  	33.22346  	5.23412  	5.52294  	27.42097  	-1.18512  	0.04281  	0.55529  	0.58307  	-3.02442  	0.03039  	-0.08565  	-73.57706  	-1.43179  	172.08775  	163.88843  	-20298.83812  	-4227.15301  	0.00493  	0.00003  	0.00410  	0.00482  	0.00653  	0.00000  	0.00000  
88.80619  	33.22393  	5.23139  	5.52008  	27.42213  	-1.18512  	0.04400  	0.55917  	0.58925  	-3.02442  	0.03163  	-0.08579  	-73.56842  	-1.43114  	173.90922  	165.03207  	-20299.19347  	-4226.81747  	0.00494  	0.00002  	0.00410  	0.00484  	0.00655  	0.00000  	0.00000  
89.80734  	33.22416  	5.23053  	5.51817  	27.42273  	-1.18512  	0.04428  	0.55878  	0.58776  	-3.02442  	0.02950  	-0.08569  	-73.56372  	-1.42596  	173.47200  	164.91916  	-20299.37616  	-4226.65065  	0.00494  	0.00003  	0.00409  	0.00485  	0.00655  	0.00000  	0.00000  
90.80736  	33.22490  	5.22921  	5.51689  	27.42391  	-1.18512  	0.04335  	0.55947  	0.59047  	-3.02442  	0.03046  	-0.08581  	-73.55815  	-1.42613  	174.26952  	165.12273  	-20299.79628  	-4226.49393  	0.00494  	0.00002  	0.00410  	0.00483  	0.00655  	0.00000  	0.00000  
91.80781  	33.22597  	5.22540  	5.51466  	27.42434  	-1.18512  	0.04408  	0.55996  	0.58987  	-3.02442  	0.03099  	-0.08569  	-73.56644  	-1.43398  	174.09457  	165.26508  	-20300.12432  	-4226.13085  	0.00494  	0.00003  	0.00410  	0.00485  	0.00656  	0.00000  	0.00000  
92.80768  	33.22651  	5.22341  	5.51213  	27.42674  	-1.18512  	0.04487  	0.56124  	0.58709  	-3.02442  	0.03215  	-0.08588  	-73.54296  	-1.43131  	173.27192  	165.64408  	-20300.76774  	-4225.85867  	0.00494  	0.00002  	0.00410  	0.00486  	0.00656  	0.00000  	0.00000  
93.80892  	33.22721  	5.22031  	5.51007  	27.42854  	-1.18512  	0.04324  	0.56271  	0.59019  	-3.02442  	0.03111  	-0.08584  	-73.52911  	-1.43645  	174.18723  	166.07738  	-20301.31417  	-4225.54786  	0.00494  	0.00002  	0.00410  	0.00483  	0.00657  	0.00000  	0.00000  
94.80983  	33.22784  	5.21903  	5.50897  	27.42975  	-1.18512  	0.04495  	0.56251  	0.59171  	-3.02442  	0.03247  	-0.08580  	-73.52166  	-1.43733  	174.63571  	166.01782  	-20301.71710  	-4225.40497  	0.00495  	0.00002  	0.00410  	0.00486  	0.00657  	0.00000  	0.00000  
95.80977  	33.22862  	5.21665  	5.50664  	27.43291  	-1.18512  	0.04255  	0.56386  	0.59315  	-3.02442  	0.03137  	-0.08568  	-73.49165  	-1.43757  	175.06175  	166.41673  	-20302.57862  	-4225.12151  	0.00495  	0.00003  	0.00410  	0.00482  	0.00657  	0.00000  	0.00000  
96.81032  	33.22994  	5.21495  	5.50464  	27.43509  	-1.18512  	0.04413  	0.56369  	0.59386  	-3.02442  	0.03469  	-0.08571  	-73.48073  	-1.43608  	175.26993  	166.36780  	-20303.34542  	-4224.89905  	0.00495  	0.00003  	0.00411  	0.00485  	0.00657  	0.00000  	0.00000  
97.81127  	33.23088  	5.21311  	5.50248  	27.43714  	-1.18512  	0.04465  	0.56522  	0.59163  	-3.02442  	0.03616  	-0.08586  	-73.46663  	-1.43455  	174.61384  	166.81878  	-20303.99989  	-4224.65848  	0.00495  	0.00002  	0.00412  	0.00486  	0.00658  	0.00000  	0.00000  
98.81243  	33.23166  	5.21241  	5.50102  	27.43877  	-1.18512  	0.04337  	0.56464  	0.59337  	-3.02442  	0.03106  	-0.08574  	-73.45599  	-1.43076  	175.12592  	166.64725  	-20304.52594  	-4224.52880  	0.00495  	0.00002  	0.00410  	0.00483  	0.00658  	0.00000  	0.00000  
99.81294  	33.23168  	5.20923  	5.49956  	27.44180  	-1.18512  	0.04281  	0.56738  	0.59851  	-3.02442  	0.03188  	-0.08587  	-73.41791  	-1.43927  	176.64440  	167.45496  	-20305.19532  	-4224.24943  	0.00496  	0.00002  	0.00410  	0.00482  	0.00659  	0.00000  	0.00000  
100.81276  	33.23318  	5.20725  	5.49684  	27.44385  	-1.18512  	0.04338  	0.56674  	0.59512  	-3.02442  	0.03245  	-0.08573  	-73.41091  	-1.43563  	175.64211  	167.26697  	-20305.97188  	-4223.96676  	0.00495  	0.00003  	0.00410  	0.00483  	0.00659  	0.00000  	0.00000  
101.81306  	33.23443  	5.20613  	5.49533  	27.44701  	-1.18512  	0.04513  	0.56733  	0.59442  	-3.02442  	0.03323  	-0.08581  	-73.38683  	-1.43366  	175.43710  	167.44245  	-20306.93908  	-4223.80888  	0.00495  	0.00002  	0.00411  	0.00487  	0.00659  	0.00000  	0.00000  
102.81342  	33.23529  	5.20363  	5.49301  	27.44963  	-1.18512  	0.04317  	0.56978  	0.59560  	-3.02442  	0.03033  	-0.08582  	-73.36451  	-1.43454  	175.78583  	168.16308  	-20307.69835  	-4223.51899  	0.00495  	0.00002  	0.00410  	0.00483  	0.00660  	0.00000  	0.00000  
103.81299  	33.23582  	5.20197  	5.49129  	27.45199  	-1.18512  	0.04296  	0.56934  	0.59627  	-3.02442  	0.02908  	-0.08584  	-73.34139  	-1.43427  	175.98342  	168.03566  	-20308.33263  	-4223.31526  	0.00495  	0.00002  	0.00409  	0.00482  	0.00660  	0.00000  	0.00000  
104.81323  	33.23672  	5.19991  	5.49058  	27.45509  	-1.18512  	0.04292  	0.56801  	0.59790  	-3.02442  	0.03148  	-0.08583  	-73.31349  	-1.44094  	176.46443  	167.64273  	-20309.20680  	-4223.14889  	0.00496  	0.00002  	0.00410  	0.00482  	0.00659  	0.00000  	0.00000  
105.81318  	33.23837  	5.19895  	5.48867  	27.45693  	-1.18512  	0.04427  	0.56849  	0.60576  	-3.02442  	0.03059  	-0.08579  	-73.31117  	-1.43624  	178.78264  	167.78436  	-20309.96990  	-4222.97575  	0.00497  	0.00002  	0.00410  	0.00485  	0.00659  	0.00000  	0.00000  
106.81318  	33.23918  	5.19697  	5.48754  	27.45947  	-1.18512  	0.04661  	0.57241  	0.59369  	-3.02442  	0.02943  	-0.08577  	-73.28925  	-1.44045  	175.21987  	168.93925  	-20310.70487  	-4222.78893  	0.00495  	0.00002  	0.00409  	0.00489  	0.00661  	0.00000  	0.00000  
107.81427  	33.24011  	5.19525  	5.48561  	27.46168  	-1.18512  	0.04383  	0.57197  	0.60532  	-3.02442  	0.03169  	-0.08579  	-73.27319  	-1.43942  	178.65417  	168.81028  	-20311.39283  	-4222.56957  	0.00497  	0.00002  	0.00410  	0.00484  	0.00661  	0.00000  	0.00000  
108.81420  	33.24140  	5.19309  	5.48443  	27.46406  	-1.18512  	0.04287  	0.57111  	0.60010  	-3.02442  	0.03205  	-0.08580  	-73.25945  	-1.44430  	177.11203  	168.55823  	-20312.19456  	-4222.36901  	0.00496  	0.00002  	0.00410  	0.00482  	0.00661  	0.00000  	0.00000  
109.81413  	33.24201  	5.19206  	5.48192  	27.46621  	-1.18512  	0.04398  	0.57459  	0.60407  	-3.02442  	0.03230  	-0.08575  	-73.23983  	-1.43693  	178.28563  	169.58410  	-20312.79896  	-4222.15633  	0.00497  	0.00002  	0.00410  	0.00484  	0.00662  	0.00000  	0.00000  
110.81423  	33.24273  	5.19027  	5.48095  	27.46862  	-1.18512  	0.04290  	0.57405  	0.60884  	-3.02442  	0.03169  	-0.08587  	-73.21860  	-1.44100  	179.69291  	169.42378  	-20313.48509  	-4221.99056  	0.00497  	0.00002  	0.00410  	0.00482  	0.00662  	0.00000  	0.00000  
111.81540  	33.24490  	5.18869  	5.47931  	27.47116  	-1.18512  	0.04358  	0.57475  	0.60443  	-3.02442  	0.03004  	-0.08568  	-73.21398  	-1.44070  	178.38965  	169.63055  	-20314.51507  	-4221.79674  	0.00497  	0.00003  	0.00410  	0.00484  	0.00662  	0.00000  	0.00000  
112.81612  	33.24463  	5.18684  	5.47738  	27.47318  	-1.18512  	0.04336  	0.57431  	0.60326  	-3.02442  	0.03110  	-0.08582  	-73.18483  	-1.44034  	178.04663  	169.50228  	-20314.89901  	-4221.56943  	0.00497  	0.00002  	0.00410  	0.00483  	0.00662  	0.00000  	0.00000  
