11/04/2024 09:34:43Time	T_hot_in(C)	T_cold_in(C)	T_cold_out(C)	T_hot_out(C)	mdot_cold(kg/s)	ASFASIFUAS(kg/s)	Diferencial_cold(bar)	Diferencial_hot(bar)	mdot_hot(kg/s)	ABS_cold(bar)	ABS_hot(bar)	q_cold(kW)	q_hot(kW)	ASFASYFY	Tau_cold_haste	Re_hot	Re_cold	U_global	PSIG_cold(bar)	R_fouling	PSIG_hot(bar)	PSID_hot(bar)	m_dot_hot	PSID_cold(bar)	m_dot_cold
1.74698  	0.00000  	0.00000  	0.00000  	0.00000  	-1.18512  	-0.20833  	-0.86278  	-2.50000  	-3.02442  	-1.25000  	-0.08628  	-0.00000  	-0.00000  	-737.84722  	-254.63905  	-9234.48090  	-3618.55272  	0.00000  	0.00000  	0.00000  	0.00000  	0.00000  	0.00000  	0.00000  
2.74794  	33.32944  	4.85272  	5.07160  	28.16439  	-1.18512  	0.03006  	0.20925  	0.21043  	-3.02442  	0.00495  	-0.08588  	-65.50631  	-1.08507  	62.10671  	61.75885  	-20484.98650  	-4177.27246  	0.00434  	0.00002  	0.00402  	0.00458  	0.00494  	0.00000  	0.00000  
3.74744  	33.32930  	4.85281  	5.07192  	28.16808  	-1.18512  	0.02967  	0.20692  	0.21696  	-3.02442  	0.00989  	-0.08575  	-65.45770  	-1.08622  	64.03333  	61.06889  	-20485.76619  	-4177.29673  	0.00435  	0.00002  	0.00403  	0.00457  	0.00493  	0.00000  	0.00000  
4.74812  	33.33043  	4.85412  	5.07211  	28.17370  	-1.18512  	0.03006  	0.20787  	0.21065  	-3.02442  	0.00869  	-0.08569  	-65.40066  	-1.08065  	62.17134  	61.34974  	-20487.24816  	-4177.38606  	0.00434  	0.00003  	0.00403  	0.00458  	0.00493  	0.00000  	0.00000  
5.74817  	33.33025  	4.85411  	5.07295  	28.17761  	-1.18512  	0.02900  	0.20904  	0.21430  	-3.02442  	0.00564  	-0.08577  	-65.34885  	-1.08489  	63.24920  	61.69701  	-20488.06460  	-4177.43589  	0.00434  	0.00002  	0.00402  	0.00456  	0.00494  	0.00000  	0.00000  
6.74838  	33.33042  	4.85521  	5.07399  	28.18109  	-1.18512  	0.02981  	0.20870  	0.21565  	-3.02442  	0.00794  	-0.08569  	-65.30682  	-1.08455  	63.64532  	61.59648  	-20488.86615  	-4177.56357  	0.00435  	0.00003  	0.00403  	0.00457  	0.00494  	0.00000  	0.00000  
7.74832  	33.33044  	4.85479  	5.07462  	28.18418  	-1.18512  	0.02906  	0.20636  	0.21032  	-3.02442  	0.00583  	-0.08578  	-65.26792  	-1.08980  	62.07324  	60.90493  	-20489.54934  	-4177.57608  	0.00434  	0.00002  	0.00402  	0.00456  	0.00493  	0.00000  	0.00000  
8.74842  	33.33146  	4.85511  	5.07497  	28.18805  	-1.18512  	0.02715  	0.20416  	0.21759  	-3.02442  	0.00403  	-0.08585  	-65.23172  	-1.08993  	64.21854  	60.25601  	-20490.62229  	-4177.61566  	0.00435  	0.00002  	0.00401  	0.00452  	0.00492  	0.00000  	0.00000  
9.74810  	33.33035  	4.85659  	5.07563  	28.18991  	-1.18512  	0.02918  	0.20496  	0.20906  	-3.02442  	0.00616  	-0.08576  	-65.19406  	-1.08589  	61.70233  	60.49164  	-20490.78818  	-4177.74334  	0.00433  	0.00002  	0.00402  	0.00456  	0.00492  	0.00000  	0.00000  
10.74748  	33.33113  	4.85690  	5.07578  	28.19196  	-1.18512  	0.02965  	0.20295  	0.20290  	-3.02442  	0.00668  	-0.08584  	-65.17786  	-1.08507  	59.88352  	59.89831  	-20491.40996  	-4177.77039  	0.00432  	0.00002  	0.00402  	0.00457  	0.00491  	0.00000  	0.00000  
11.74810  	33.33012  	4.85664  	5.07578  	28.19287  	-1.18512  	0.02882  	0.20157  	0.20780  	-3.02442  	0.00797  	-0.08580  	-65.15356  	-1.08638  	61.33092  	59.49054  	-20491.38888  	-4177.75542  	0.00433  	0.00002  	0.00403  	0.00455  	0.00490  	0.00000  	0.00000  
12.74771  	33.33202  	4.85770  	5.07640  	28.19438  	-1.18512  	0.02758  	0.19906  	0.20940  	-3.02442  	0.00729  	-0.08572  	-65.15847  	-1.08420  	61.80261  	58.75004  	-20492.13438  	-4177.85533  	0.00434  	0.00003  	0.00402  	0.00453  	0.00489  	0.00000  	0.00000  
13.74764  	33.33183  	4.85872  	5.07608  	28.19424  	-1.18512  	0.03063  	0.19992  	0.19930  	-3.02442  	0.00494  	-0.08571  	-65.15792  	-1.07750  	58.82055  	59.00480  	-20492.06259  	-4177.89747  	0.00432  	0.00003  	0.00402  	0.00459  	0.00490  	0.00000  	0.00000  
14.74812  	33.33144  	4.85863  	5.07679  	28.19366  	-1.18512  	0.02747  	0.19709  	0.19627  	-3.02442  	0.00567  	-0.08565  	-65.16024  	-1.08152  	57.92714  	58.16950  	-20491.85148  	-4177.93434  	0.00431  	0.00003  	0.00402  	0.00453  	0.00488  	0.00000  	0.00000  
15.74745  	33.33097  	4.85833  	5.07656  	28.19176  	-1.18512  	0.02896  	0.19524  	0.19470  	-3.02442  	0.00599  	-0.08587  	-65.17830  	-1.08187  	57.46485  	57.62190  	-20491.32976  	-4177.90249  	0.00431  	0.00002  	0.00402  	0.00456  	0.00487  	0.00000  	0.00000  
16.74809  	33.33185  	4.85959  	5.07668  	28.18726  	-1.18512  	0.02776  	0.19540  	0.18888  	-3.02442  	0.00379  	-0.08585  	-65.24661  	-1.07619  	55.74483  	57.66957  	-20490.53757  	-4177.98523  	0.00430  	0.00002  	0.00401  	0.00453  	0.00488  	0.00000  	0.00000  
17.74758  	33.33143  	4.85973  	5.07672  	28.18343  	-1.18512  	0.02780  	0.19231  	0.19686  	-3.02442  	0.00664  	-0.08568  	-65.28984  	-1.07569  	58.10185  	56.75826  	-20489.60277  	-4177.99616  	0.00431  	0.00003  	0.00402  	0.00453  	0.00486  	0.00000  	0.00000  
18.74850  	33.33170  	4.85929  	5.07725  	28.17896  	-1.18512  	0.02860  	0.19138  	0.18988  	-3.02442  	0.00816  	-0.08574  	-65.34992  	-1.08050  	56.03961  	56.48256  	-20488.68052  	-4178.00106  	0.00430  	0.00003  	0.00403  	0.00455  	0.00486  	0.00000  	0.00000  
19.74911  	33.33117  	4.86053  	5.07715  	28.17340  	-1.18512  	0.02828  	0.19229  	0.19227  	-3.02442  	0.00723  	-0.08581  	-65.41376  	-1.07387  	56.74686  	56.75081  	-20487.34512  	-4178.06929  	0.00431  	0.00002  	0.00402  	0.00454  	0.00486  	0.00000  	0.00000  
20.74863  	33.33245  	4.85885  	5.07703  	28.16637  	-1.18512  	0.02760  	0.19300  	0.19617  	-3.02442  	0.00782  	-0.08579  	-65.51916  	-1.08156  	57.89827  	56.96110  	-20486.08107  	-4177.96184  	0.00431  	0.00002  	0.00403  	0.00453  	0.00486  	0.00000  	0.00000  
21.74953  	33.33282  	4.86028  	5.07718  	28.16052  	-1.18512  	0.02981  	0.19359  	0.19917  	-3.02442  	0.01048  	-0.08567  	-65.59792  	-1.07528  	58.78398  	57.13464  	-20484.88019  	-4178.05570  	0.00432  	0.00003  	0.00403  	0.00457  	0.00487  	0.00000  	0.00000  
22.75013  	33.33257  	4.86015  	5.07690  	28.15455  	-1.18512  	0.02616  	0.19503  	0.20182  	-3.02442  	0.00854  	-0.08575  	-65.67058  	-1.07447  	59.56512  	57.56233  	-20483.51579  	-4178.03149  	0.00432  	0.00002  	0.00403  	0.00450  	0.00487  	0.00000  	0.00000  
23.74975  	33.33292  	4.86020  	5.07809  	28.15017  	-1.18512  	0.02653  	0.19514  	0.20095  	-3.02442  	0.00856  	-0.08564  	-65.73053  	-1.08012  	59.30943  	57.59452  	-20482.62998  	-4178.10530  	0.00432  	0.00003  	0.00403  	0.00451  	0.00487  	0.00000  	0.00000  
24.74999  	33.33345  	4.86055  	5.07774  	28.14448  	-1.18512  	0.02782  	0.19659  	0.20406  	-3.02442  	0.00672  	-0.08573  	-65.80951  	-1.07670  	60.22559  	58.02102  	-20481.49807  	-4178.10552  	0.00433  	0.00003  	0.00402  	0.00453  	0.00488  	0.00000  	0.00000  
25.75045  	33.33391  	4.86038  	5.07762  	28.14229  	-1.18512  	0.02798  	0.19958  	0.20132  	-3.02442  	0.00719  	-0.08580  	-65.84296  	-1.07694  	59.41847  	58.90283  	-20481.11803  	-4178.08790  	0.00432  	0.00002  	0.00402  	0.00454  	0.00489  	0.00000  	0.00000  
26.75243  	33.33350  	4.86036  	5.07817  	28.14004  	-1.18512  	0.02860  	0.20119  	0.20632  	-3.02442  	0.00560  	-0.08576  	-65.86636  	-1.07977  	60.89163  	59.37895  	-20480.53333  	-4178.11938  	0.00433  	0.00002  	0.00402  	0.00455  	0.00490  	0.00000  	0.00000  
27.75341  	33.33392  	4.86104  	5.07851  	28.13816  	-1.18512  	0.02771  	0.20066  	0.20426  	-3.02442  	0.00686  	-0.08579  	-65.89561  	-1.07806  	60.28621  	59.22159  	-20480.21542  	-4178.18011  	0.00433  	0.00002  	0.00402  	0.00453  	0.00490  	0.00000  	0.00000  
28.75493  	33.33372  	4.86116  	5.07765  	28.13851  	-1.18512  	0.03085  	0.20014  	0.20491  	-3.02442  	0.00834  	-0.08564  	-65.88863  	-1.07322  	60.47663  	59.06952  	-20480.24682  	-4178.13655  	0.00433  	0.00003  	0.00403  	0.00459  	0.00490  	0.00000  	0.00000  
29.75698  	33.33420  	4.86120  	5.07868  	28.13846  	-1.18512  	0.02906  	0.20095  	0.20808  	-3.02442  	0.00624  	-0.08571  	-65.89525  	-1.07812  	61.41155  	59.30716  	-20480.34383  	-4178.20030  	0.00433  	0.00003  	0.00402  	0.00456  	0.00490  	0.00000  	0.00000  
30.75807  	33.33406  	4.86143  	5.07888  	28.13927  	-1.18512  	0.02890  	0.20464  	0.20692  	-3.02442  	0.00600  	-0.08582  	-65.88321  	-1.07800  	61.06934  	60.39727  	-20480.48800  	-4178.22575  	0.00433  	0.00002  	0.00402  	0.00455  	0.00492  	0.00000  	0.00000  
31.75832  	33.33393  	4.86227  	5.07945  	28.14057  	-1.18512  	0.02857  	0.20456  	0.20764  	-3.02442  	0.00751  	-0.08580  	-65.86500  	-1.07664  	61.28187  	60.37279  	-20480.74563  	-4178.30947  	0.00433  	0.00002  	0.00402  	0.00455  	0.00492  	0.00000  	0.00000  
32.75799  	33.33405  	4.86227  	5.07963  	28.14462  	-1.18512  	0.02993  	0.20590  	0.20505  	-3.02442  	0.00785  	-0.08577  	-65.81521  	-1.07750  	60.51954  	60.76801  	-20481.65865  	-4178.32067  	0.00433  	0.00002  	0.00403  	0.00457  	0.00492  	0.00000  	0.00000  
33.75824  	33.33316  	4.86127  	5.08021  	28.14635  	-1.18512  	0.02838  	0.20528  	0.21327  	-3.02442  	0.00797  	-0.08584  	-65.78200  	-1.08535  	62.94409  	60.58754  	-20481.84496  	-4178.29585  	0.00434  	0.00002  	0.00403  	0.00454  	0.00492  	0.00000  	0.00000  
34.75775  	33.33319  	4.86148  	5.08072  	28.14902  	-1.18512  	0.02798  	0.20537  	0.21112  	-3.02442  	0.00859  	-0.08581  	-65.74847  	-1.08684  	62.30838  	60.61155  	-20482.43856  	-4178.33824  	0.00434  	0.00002  	0.00403  	0.00454  	0.00492  	0.00000  	0.00000  
35.75820  	33.33339  	4.86173  	5.08066  	28.15261  	-1.18512  	0.02834  	0.20510  	0.21539  	-3.02442  	0.00599  	-0.08580  	-65.70540  	-1.08527  	63.57017  	60.53321  	-20483.26955  	-4178.34984  	0.00434  	0.00002  	0.00402  	0.00454  	0.00492  	0.00000  	0.00000  
36.75989  	33.33284  	4.86200  	5.08079  	28.15571  	-1.18512  	0.02745  	0.20536  	0.21481  	-3.02442  	0.00746  	-0.08584  	-65.65928  	-1.08466  	63.39789  	60.61103  	-20483.82820  	-4178.37365  	0.00434  	0.00002  	0.00402  	0.00453  	0.00492  	0.00000  	0.00000  
37.76033  	33.33292  	4.86196  	5.08061  	28.15985  	-1.18512  	0.02827  	0.20849  	0.21890  	-3.02442  	0.00726  	-0.08586  	-65.60783  	-1.08392  	64.60447  	61.53428  	-20484.75481  	-4178.36012  	0.00435  	0.00002  	0.00402  	0.00454  	0.00494  	0.00000  	0.00000  
38.76208  	33.33325  	4.86245  	5.08128  	28.16354  	-1.18512  	0.02975  	0.20984  	0.20975  	-3.02442  	0.00612  	-0.08579  	-65.56505  	-1.08483  	61.90433  	61.93325  	-20485.63602  	-4178.42980  	0.00434  	0.00002  	0.00402  	0.00457  	0.00494  	0.00000  	0.00000  
39.76216  	33.33233  	4.86219  	5.08116  	28.16747  	-1.18512  	0.02805  	0.20750  	0.22051  	-3.02442  	0.00746  	-0.08579  	-65.50362  	-1.08551  	65.08218  	61.24155  	-20486.29717  	-4178.40757  	0.00435  	0.00002  	0.00402  	0.00454  	0.00493  	0.00000  	0.00000  
40.76159  	33.33275  	4.86340  	5.08132  	28.17172  	-1.18512  	0.02979  	0.20732  	0.21790  	-3.02442  	0.00662  	-0.08573  	-65.45506  	-1.08029  	64.31006  	61.18878  	-20487.32171  	-4178.48885  	0.00435  	0.00003  	0.00402  	0.00457  	0.00493  	0.00000  	0.00000  
41.76197  	33.33175  	4.86366  	5.08164  	28.17600  	-1.18512  	0.02970  	0.20754  	0.21036  	-3.02442  	0.00893  	-0.08581  	-65.38799  	-1.08059  	62.08403  	61.25384  	-20488.04223  	-4178.52378  	0.00434  	0.00002  	0.00403  	0.00457  	0.00493  	0.00000  	0.00000  
42.76229  	33.33206  	4.86362  	5.08281  	28.17923  	-1.18512  	0.02853  	0.20440  	0.21823  	-3.02442  	0.00496  	-0.08575  	-65.35103  	-1.08656  	64.40751  	60.32643  	-20488.81901  	-4178.59078  	0.00435  	0.00002  	0.00402  	0.00455  	0.00492  	0.00000  	0.00000  
43.76155  	33.33154  	4.86311  	5.08199  	28.18296  	-1.18512  	0.02776  	0.20373  	0.22047  	-3.02442  	0.00910  	-0.08573  	-65.29712  	-1.08505  	65.06890  	60.12862  	-20489.52280  	-4178.51171  	0.00435  	0.00003  	0.00403  	0.00453  	0.00491  	0.00000  	0.00000  
44.76194  	33.33029  	4.86382  	5.08218  	28.18589  	-1.18512  	0.02831  	0.20513  	0.20969  	-3.02442  	0.00749  	-0.08574  	-65.24395  	-1.08251  	61.88883  	60.54112  	-20489.89239  	-4178.56529  	0.00434  	0.00003  	0.00402  	0.00454  	0.00492  	0.00000  	0.00000  
45.76226  	33.33129  	4.86441  	5.08229  	28.18689  	-1.18512  	0.02753  	0.20115  	0.20057  	-3.02442  	0.00809  	-0.08567  	-65.24403  	-1.08014  	59.19641  	59.36633  	-20490.33025  	-4178.60698  	0.00432  	0.00003  	0.00403  	0.00453  	0.00490  	0.00000  	0.00000  
46.76150  	33.33118  	4.86464  	5.08178  	28.18803  	-1.18512  	0.02627  	0.19930  	0.20778  	-3.02442  	0.00677  	-0.08580  	-65.22825  	-1.07643  	61.32413  	58.81986  	-20490.55754  	-4178.58988  	0.00433  	0.00002  	0.00402  	0.00450  	0.00489  	0.00000  	0.00000  
47.76207  	33.33123  	4.86491  	5.08207  	28.18889  	-1.18512  	0.02739  	0.19813  	0.20562  	-3.02442  	0.00734  	-0.08575  	-65.21795  	-1.07653  	60.68603  	58.47664  	-20490.75745  	-4178.62326  	0.00433  	0.00002  	0.00402  	0.00453  	0.00489  	0.00000  	0.00000  
48.76148  	33.33065  	4.86504  	5.08252  	28.18837  	-1.18512  	0.02885  	0.19566  	0.20350  	-3.02442  	0.00881  	-0.08567  	-65.21717  	-1.07813  	60.06072  	57.74549  	-20490.51701  	-4178.65838  	0.00433  	0.00003  	0.00403  	0.00455  	0.00488  	0.00000  	0.00000  
49.76208  	33.33021  	4.86548  	5.08322  	28.18634  	-1.18512  	0.02897  	0.19488  	0.19576  	-3.02442  	0.00794  	-0.08581  	-65.23726  	-1.07941  	57.77496  	57.51572  	-20489.97373  	-4178.72661  	0.00431  	0.00002  	0.00403  	0.00456  	0.00487  	0.00000  	0.00000  
50.76154  	33.33031  	4.86504  	5.08260  	28.18379  	-1.18512  	0.02903  	0.19388  	0.19756  	-3.02442  	0.00728  	-0.08580  	-65.27096  	-1.07850  	58.30883  	57.22164  	-20489.43664  	-4178.66244  	0.00432  	0.00002  	0.00402  	0.00456  	0.00487  	0.00000  	0.00000  
51.76297  	33.33003  	4.86405  	5.08195  	28.17987  	-1.18512  	0.02767  	0.19059  	0.19241  	-3.02442  	0.00693  	-0.08581  	-65.31719  	-1.08019  	56.78908  	56.25116  	-20488.51386  	-4178.56481  	0.00431  	0.00002  	0.00402  	0.00453  	0.00485  	0.00000  	0.00000  
52.76296  	33.32963  	4.86461  	5.08212  	28.17366  	-1.18512  	0.02733  	0.19067  	0.19883  	-3.02442  	0.00994  	-0.08581  	-65.39080  	-1.07830  	58.68263  	56.27453  	-20487.06221  	-4178.60880  	0.00432  	0.00002  	0.00403  	0.00452  	0.00485  	0.00000  	0.00000  
53.76391  	33.33030  	4.86443  	5.08227  	28.16868  	-1.18512  	0.02652  	0.19249  	0.20040  	-3.02442  	0.00825  	-0.08576  	-65.46241  	-1.07991  	59.14653  	56.80992  	-20486.11638  	-4178.60658  	0.00432  	0.00002  	0.00403  	0.00451  	0.00486  	0.00000  	0.00000  
54.76390  	33.32943  	4.86480  	5.08197  	28.16270  	-1.18512  	0.02784  	0.19448  	0.19361  	-3.02442  	0.00576  	-0.08576  	-65.52723  	-1.07658  	57.14313  	57.39756  	-20484.61374  	-4178.61133  	0.00431  	0.00002  	0.00402  	0.00453  	0.00487  	0.00000  	0.00000  
55.76391  	33.32954  	4.86532  	5.08102  	28.15770  	-1.18512  	0.02822  	0.19496  	0.19691  	-3.02442  	0.00631  	-0.08573  	-65.59198  	-1.06929  	58.11677  	57.54112  	-20483.54146  	-4178.58512  	0.00432  	0.00003  	0.00402  	0.00454  	0.00487  	0.00000  	0.00000  
56.76391  	33.32964  	4.86476  	5.08123  	28.15152  	-1.18512  	0.02793  	0.19645  	0.20167  	-3.02442  	0.00820  	-0.08573  	-65.67168  	-1.07308  	59.52071  	57.97993  	-20482.20587  	-4178.56431  	0.00432  	0.00003  	0.00403  	0.00454  	0.00488  	0.00000  	0.00000  
57.76391  	33.32916  	4.86509  	5.08130  	28.14646  	-1.18512  	0.02769  	0.19768  	0.20151  	-3.02442  	0.00863  	-0.08580  	-65.72974  	-1.07181  	59.47252  	58.34241  	-20480.99069  	-4178.58837  	0.00432  	0.00002  	0.00403  	0.00453  	0.00489  	0.00000  	0.00000  
58.76390  	33.32935  	4.86457  	5.08159  	28.14313  	-1.18512  	0.02738  	0.19811  	0.20545  	-3.02442  	0.00905  	-0.08585  	-65.77445  	-1.07580  	60.63714  	58.46876  	-20480.30319  	-4178.57454  	0.00433  	0.00002  	0.00403  	0.00453  	0.00489  	0.00000  	0.00000  
59.76391  	33.33007  	4.86466  	5.08105  	28.14148  	-1.18512  	0.02860  	0.20017  	0.20424  	-3.02442  	0.00576  	-0.08576  	-65.80444  	-1.07272  	60.28024  	59.07932  	-20480.09838  	-4178.54754  	0.00433  	0.00002  	0.00402  	0.00455  	0.00490  	0.00000  	0.00000  
60.76391  	33.32909  	4.86544  	5.08168  	28.14007  	-1.18512  	0.02876  	0.20030  	0.20838  	-3.02442  	0.00680  	-0.08583  	-65.80995  	-1.07196  	61.50037  	59.11605  	-20479.57273  	-4178.63170  	0.00433  	0.00002  	0.00402  	0.00455  	0.00490  	0.00000  	0.00000  
61.76390  	33.32935  	4.86577  	5.08164  	28.13925  	-1.18512  	0.02951  	0.20181  	0.20709  	-3.02442  	0.00690  	-0.08575  	-65.82352  	-1.07015  	61.12150  	59.56321  	-20479.45122  	-4178.64926  	0.00433  	0.00002  	0.00402  	0.00457  	0.00490  	0.00000  	0.00000  
62.76390  	33.33037  	4.86528  	5.08191  	28.13927  	-1.18512  	0.02801  	0.20099  	0.20831  	-3.02442  	0.00818  	-0.08576  	-65.83634  	-1.07389  	61.48001  	59.31987  	-20479.68084  	-4178.63609  	0.00433  	0.00002  	0.00403  	0.00454  	0.00490  	0.00000  	0.00000  
63.76391  	33.32951  	4.86535  	5.08167  	28.14109  	-1.18512  	0.02683  	0.20295  	0.21244  	-3.02442  	0.00797  	-0.08570  	-65.80234  	-1.07233  	62.69875  	59.89878  	-20479.89106  	-4178.62590  	0.00434  	0.00003  	0.00403  	0.00452  	0.00491  	0.00000  	0.00000  
64.76382  	33.32984  	4.86564  	5.08167  	28.14285  	-1.18512  	0.02764  	0.20596  	0.21625  	-3.02442  	0.00628  	-0.08592  	-65.78414  	-1.07093  	63.82289  	60.78771  	-20480.34920  	-4178.64267  	0.00435  	0.00002  	0.00402  	0.00453  	0.00492  	0.00000  	0.00000  
65.76490  	33.32980  	4.86571  	5.08159  	28.14425  	-1.18512  	0.02762  	0.20308  	0.20561  	-3.02442  	0.00805  	-0.08580  	-65.76589  	-1.07020  	60.68225  	59.93617  	-20480.64837  	-4178.64265  	0.00433  	0.00002  	0.00403  	0.00453  	0.00491  	0.00000  	0.00000  
66.76592  	33.32973  	4.86503  	5.08220  	28.14682  	-1.18512  	0.02910  	0.20495  	0.20877  	-3.02442  	0.00776  	-0.08579  	-65.73249  	-1.07656  	61.61705  	60.48886  	-20481.19688  	-4178.63830  	0.00433  	0.00002  	0.00402  	0.00456  	0.00492  	0.00000  	0.00000  
67.76740  	33.32890  	4.86620  	5.08234  	28.14972  	-1.18512  	0.02817  	0.20545  	0.21482  	-3.02442  	0.00918  	-0.08564  	-65.68509  	-1.07148  	63.40167  	60.63701  	-20481.64874  	-4178.71704  	0.00434  	0.00003  	0.00403  	0.00454  	0.00492  	0.00000  	0.00000  
68.76648  	33.32891  	4.86583  	5.08278  	28.15313  	-1.18512  	0.02777  	0.20760  	0.21222  	-3.02442  	0.00683  	-0.08576  	-65.64197  	-1.07546  	62.63344  	61.27091  	-20482.40061  	-4178.72064  	0.00434  	0.00002  	0.00402  	0.00453  	0.00493  	0.00000  	0.00000  
69.76721  	33.32935  	4.86616  	5.08355  	28.15565  	-1.18512  	0.02838  	0.20847  	0.21579  	-3.02442  	0.00599  	-0.08594  	-65.61570  	-1.07769  	63.68766  	61.52776  	-20483.04976  	-4178.78660  	0.00435  	0.00002  	0.00402  	0.00454  	0.00494  	0.00000  	0.00000  
70.76753  	33.32865  	4.86627  	5.08390  	28.15936  	-1.18512  	0.03091  	0.20872  	0.21308  	-3.02442  	0.00507  	-0.08569  	-65.55959  	-1.07891  	62.88862  	61.60023  	-20483.71015  	-4178.81375  	0.00434  	0.00003  	0.00402  	0.00459  	0.00494  	0.00000  	0.00000  
71.76898  	33.32842  	4.86591  	5.08300  	28.16403  	-1.18512  	0.02885  	0.20743  	0.21131  	-3.02442  	0.00622  	-0.08566  	-65.49751  	-1.07617  	62.36511  	61.21921  	-20484.68516  	-4178.73829  	0.00434  	0.00003  	0.00402  	0.00455  	0.00493  	0.00000  	0.00000  
72.76939  	33.32902  	4.86603  	5.08415  	28.16952  	-1.18512  	0.02977  	0.20948  	0.21349  	-3.02442  	0.00644  	-0.08578  	-65.43548  	-1.08131  	63.01001  	61.82453  	-20486.02243  	-4178.81442  	0.00434  	0.00002  	0.00402  	0.00457  	0.00494  	0.00000  	0.00000  
73.76977  	33.32799  	4.86647  	5.08306  	28.17281  	-1.18512  	0.02776  	0.20961  	0.21362  	-3.02442  	0.00495  	-0.08568  	-65.38071  	-1.07372  	63.04860  	61.86483  	-20486.51620  	-4178.77530  	0.00434  	0.00003  	0.00402  	0.00453  	0.00494  	0.00000  	0.00000  
74.77029  	33.32759  	4.86699  	5.08369  	28.17692  	-1.18512  	0.02858  	0.20734  	0.21083  	-3.02442  	0.00777  	-0.08582  	-65.32350  	-1.07424  	62.22407  	61.19383  	-20487.33168  	-4178.84394  	0.00434  	0.00002  	0.00402  	0.00455  	0.00493  	0.00000  	0.00000  
75.76982  	33.32916  	4.86633  	5.08390  	28.18031  	-1.18512  	0.02759  	0.20678  	0.21129  	-3.02442  	0.00375  	-0.08569  	-65.30049  	-1.07860  	62.36088  	61.02784  	-20488.41902  	-4178.81751  	0.00434  	0.00003  	0.00401  	0.00453  	0.00493  	0.00000  	0.00000  
76.77032  	33.32836  	4.86577  	5.08454  	28.18330  	-1.18512  	0.02970  	0.20512  	0.20716  	-3.02442  	0.00873  	-0.08577  	-65.25234  	-1.08454  	61.14054  	60.53943  	-20488.90139  	-4178.82209  	0.00433  	0.00002  	0.00403  	0.00457  	0.00492  	0.00000  	0.00000  
77.77086  	33.32722  	4.86678  	5.08458  	28.18636  	-1.18512  	0.02912  	0.20438  	0.21079  	-3.02442  	0.00632  	-0.08571  	-65.19906  	-1.07971  	62.21322  	60.32166  	-20489.32083  	-4178.88488  	0.00434  	0.00003  	0.00402  	0.00456  	0.00492  	0.00000  	0.00000  
78.77054  	33.32693  	4.86657  	5.08411  	28.18863  	-1.18512  	0.02787  	0.20380  	0.20939  	-3.02442  	0.00667  	-0.08566  	-65.16661  	-1.07841  	61.79968  	60.15039  	-20489.75492  	-4178.84426  	0.00434  	0.00003  	0.00402  	0.00454  	0.00491  	0.00000  	0.00000  
79.77217  	33.32695  	4.86616  	5.08514  	28.19072  	-1.18512  	0.02898  	0.20264  	0.20693  	-3.02442  	0.00769  	-0.08589  	-65.14034  	-1.08554  	61.07425  	59.80644  	-20490.21890  	-4178.88092  	0.00433  	0.00002  	0.00402  	0.00456  	0.00491  	0.00000  	0.00000  
80.77368  	33.32636  	4.86581  	5.08467  	28.19119  	-1.18512  	0.02971  	0.20086  	0.20676  	-3.02442  	0.00667  	-0.08582  	-65.12687  	-1.08496  	61.02435  	59.28119  	-20490.19303  	-4178.83257  	0.00433  	0.00002  	0.00402  	0.00457  	0.00490  	0.00000  	0.00000  
81.77388  	33.32656  	4.86669  	5.08413  	28.19031  	-1.18512  	0.03085  	0.19958  	0.20163  	-3.02442  	0.00815  	-0.08585  	-65.14069  	-1.07791  	59.50771  	58.90474  	-20490.04453  	-4178.85238  	0.00432  	0.00002  	0.00403  	0.00459  	0.00489  	0.00000  	0.00000  
82.77593  	33.32664  	4.86661  	5.08423  	28.18997  	-1.18512  	0.02846  	0.19857  	0.20303  	-3.02442  	0.00611  	-0.08579  	-65.14595  	-1.07883  	59.92247  	58.60512  	-20489.98523  	-4178.85385  	0.00432  	0.00002  	0.00402  	0.00455  	0.00489  	0.00000  	0.00000  
83.77690  	33.32586  	4.86586  	5.08385  	28.18889  	-1.18512  	0.02746  	0.19577  	0.20736  	-3.02442  	0.00728  	-0.08576  	-65.14982  	-1.08064  	61.19924  	57.78023  	-20489.57907  	-4178.78581  	0.00433  	0.00002  	0.00402  	0.00453  	0.00488  	0.00000  	0.00000  
84.77802  	33.32606  	4.86638  	5.08329  	28.18579  	-1.18512  	0.02696  	0.19445  	0.19583  	-3.02442  	0.00792  	-0.08575  	-65.19165  	-1.07533  	57.79753  	57.38887  	-20488.94331  	-4178.78403  	0.00431  	0.00002  	0.00403  	0.00452  	0.00487  	0.00000  	0.00000  
85.77819  	33.32543  	4.86624  	5.08328  	28.18172  	-1.18512  	0.02823  	0.19165  	0.19629  	-3.02442  	0.00483  	-0.08582  	-65.23527  	-1.07596  	57.93172  	56.56470  	-20487.90954  	-4178.77479  	0.00431  	0.00002  	0.00402  	0.00454  	0.00486  	0.00000  	0.00000  
86.77840  	33.32558  	4.86631  	5.08372  	28.17710  	-1.18512  	0.02821  	0.19041  	0.19056  	-3.02442  	0.00829  	-0.08571  	-65.29570  	-1.07774  	56.24075  	56.19809  	-20486.92867  	-4178.80541  	0.00430  	0.00003  	0.00403  	0.00454  	0.00485  	0.00000  	0.00000  
87.77797  	33.32390  	4.86586  	5.08394  	28.17128  	-1.18512  	0.02685  	0.19105  	0.19929  	-3.02442  	0.00389  	-0.08578  	-65.34825  	-1.08110  	58.81890  	56.38696  	-20485.28330  	-4178.79192  	0.00432  	0.00002  	0.00401  	0.00452  	0.00486  	0.00000  	0.00000  
88.77750  	33.32432  	4.86594  	5.08371  	28.16423  	-1.18512  	0.02658  	0.19141  	0.19432  	-3.02442  	0.00776  	-0.08579  	-65.44294  	-1.07956  	57.35192  	56.49230  	-20483.83022  	-4178.78224  	0.00431  	0.00002  	0.00402  	0.00451  	0.00486  	0.00000  	0.00000  
89.77885  	33.32381  	4.86670  	5.08344  	28.15796  	-1.18512  	0.02763  	0.19376  	0.19105  	-3.02442  	0.00722  	-0.08555  	-65.51603  	-1.07442  	56.38684  	57.18661  	-20482.34061  	-4178.81185  	0.00431  	0.00003  	0.00402  	0.00453  	0.00487  	0.00000  	0.00000  
90.77948  	33.32440  	4.86669  	5.08329  	28.15189  	-1.18512  	0.02830  	0.19649  	0.19842  	-3.02442  	0.00789  	-0.08563  	-65.60048  	-1.07376  	58.56232  	57.99326  	-20481.14047  	-4178.80262  	0.00432  	0.00003  	0.00403  	0.00454  	0.00488  	0.00000  	0.00000  
91.78023  	33.32434  	4.86694  	5.08309  	28.14744  	-1.18512  	0.02747  	0.19662  	0.20061  	-3.02442  	0.00644  	-0.08575  	-65.65621  	-1.07152  	59.20801  	58.03016  	-20480.14925  	-4178.80522  	0.00432  	0.00002  	0.00402  	0.00453  	0.00488  	0.00000  	0.00000  
92.78045  	33.32429  	4.86676  	5.08345  	28.14279  	-1.18512  	0.02925  	0.19726  	0.20571  	-3.02442  	0.00659  	-0.08573  	-65.71451  	-1.07422  	60.71176  	58.21860  	-20479.11926  	-4178.81650  	0.00433  	0.00003  	0.00402  	0.00456  	0.00488  	0.00000  	0.00000  
93.78101  	33.32466  	4.86555  	5.08306  	28.13894  	-1.18512  	0.02923  	0.19985  	0.19689  	-3.02442  	0.00708  	-0.08575  	-65.76809  	-1.07827  	58.10944  	58.98365  	-20478.35487  	-4178.72118  	0.00432  	0.00002  	0.00402  	0.00456  	0.00490  	0.00000  	0.00000  
94.78186  	33.32525  	4.86573  	5.08277  	28.13735  	-1.18512  	0.02926  	0.20017  	0.20531  	-3.02442  	0.00675  	-0.08577  	-65.79568  	-1.07592  	60.59365  	59.07807  	-20478.13380  	-4178.71395  	0.00433  	0.00002  	0.00402  	0.00456  	0.00490  	0.00000  	0.00000  
95.78147  	33.32473  	4.86764  	5.08377  	28.13535  	-1.18512  	0.02912  	0.19958  	0.20620  	-3.02442  	0.01024  	-0.08576  	-65.81444  	-1.07144  	60.85753  	58.90476  	-20477.58241  	-4178.88783  	0.00433  	0.00002  	0.00403  	0.00456  	0.00489  	0.00000  	0.00000  
96.78196  	33.32369  	4.86656  	5.08437  	28.13615  	-1.18512  	0.02762  	0.20020  	0.20323  	-3.02442  	0.01018  	-0.08576  	-65.79115  	-1.07978  	59.98209  	59.08777  	-20477.52874  	-4178.85903  	0.00433  	0.00002  	0.00403  	0.00453  	0.00490  	0.00000  	0.00000  
97.78216  	33.32497  	4.86685  	5.08390  	28.13654  	-1.18512  	0.02849  	0.20034  	0.20342  	-3.02442  	0.00587  	-0.08570  	-65.80236  	-1.07601  	60.03760  	59.12691  	-20477.89657  	-4178.84834  	0.00433  	0.00003  	0.00402  	0.00455  	0.00490  	0.00000  	0.00000  
98.78241  	33.32421  	4.86671  	5.08321  	28.13748  	-1.18512  	0.02970  	0.20126  	0.20611  	-3.02442  	0.00868  	-0.08574  	-65.78074  	-1.07326  	60.82974  	59.39889  	-20477.93494  	-4178.79902  	0.00433  	0.00003  	0.00403  	0.00457  	0.00490  	0.00000  	0.00000  
99.78242  	33.32351  	4.86726  	5.08370  	28.13774  	-1.18512  	0.02915  	0.20275  	0.21043  	-3.02442  	0.00744  	-0.08570  	-65.76859  	-1.07295  	62.10509  	59.84047  	-20477.83908  	-4178.86074  	0.00434  	0.00003  	0.00402  	0.00456  	0.00491  	0.00000  	0.00000  
100.78196  	33.32362  	4.86679  	5.08430  	28.13913  	-1.18512  	0.02867  	0.20433  	0.21487  	-3.02442  	0.00680  	-0.08568  	-65.75242  	-1.07826  	63.41559  	60.30606  	-20478.16709  	-4178.86832  	0.00434  	0.00003  	0.00402  	0.00455  	0.00492  	0.00000  	0.00000  
101.78195  	33.32297  	4.86624  	5.08352  	28.14093  	-1.18512  	0.02899  	0.20245  	0.20647  	-3.02442  	0.01298  	-0.08568  	-65.72143  	-1.07713  	60.93867  	59.75047  	-20478.41888  	-4178.78915  	0.00433  	0.00003  	0.00404  	0.00456  	0.00491  	0.00000  	0.00000  
102.78230  	33.32319  	4.86643  	5.08295  	28.14369  	-1.18512  	0.02901  	0.20359  	0.20952  	-3.02442  	0.00604  	-0.08574  	-65.68905  	-1.07335  	61.83761  	60.08682  	-20479.07348  	-4178.76703  	0.00434  	0.00002  	0.00402  	0.00456  	0.00491  	0.00000  	0.00000  
103.78413  	33.32353  	4.86708  	5.08353  	28.14709  	-1.18512  	0.02736  	0.20503  	0.21131  	-3.02442  	0.00829  	-0.08577  	-65.65029  	-1.07302  	62.36568  	60.51278  	-20479.89290  	-4178.83985  	0.00434  	0.00002  	0.00403  	0.00453  	0.00492  	0.00000  	0.00000  
104.78493  	33.32309  	4.86627  	5.08433  	28.15023  	-1.18512  	0.02857  	0.20691  	0.21015  	-3.02442  	0.00578  	-0.08577  	-65.60498  	-1.08098  	62.02474  	61.06850  	-20480.48805  	-4178.83907  	0.00434  	0.00002  	0.00402  	0.00455  	0.00493  	0.00000  	0.00000  
105.78598  	33.32266  	4.86624  	5.08451  	28.15400  	-1.18512  	0.02857  	0.20689  	0.21271  	-3.02442  	0.00652  	-0.08577  	-65.55165  	-1.08205  	62.77803  	61.05983  	-20481.22104  	-4178.84817  	0.00434  	0.00002  	0.00402  	0.00455  	0.00493  	0.00000  	0.00000  
106.78606  	33.32212  	4.86631  	5.08459  	28.15810  	-1.18512  	0.02942  	0.20817  	0.21349  	-3.02442  	0.00945  	-0.08570  	-65.49284  	-1.08205  	63.00946  	61.43903  	-20482.00150  	-4178.85728  	0.00434  	0.00003  	0.00403  	0.00456  	0.00493  	0.00000  	0.00000  
107.78588  	33.32192  	4.86712  	5.08395  	28.16200  	-1.18512  	0.03140  	0.20555  	0.21032  	-3.02442  	0.00725  	-0.08574  	-65.44087  	-1.07486  	62.07279  	60.66658  	-20482.81354  	-4178.86750  	0.00434  	0.00003  	0.00402  	0.00460  	0.00492  	0.00000  	0.00000  
108.78600  	33.32225  	4.86754  	5.08527  	28.16638  	-1.18512  	0.02768  	0.20743  	0.21504  	-3.02442  	0.00756  	-0.08567  	-65.38942  	-1.07937  	63.46741  	61.21974  	-20483.84523  	-4178.97125  	0.00434  	0.00003  	0.00402  	0.00453  	0.00493  	0.00000  	0.00000  
109.78632  	33.32259  	4.86837  	5.08505  	28.16985  	-1.18512  	0.03109  	0.20662  	0.20978  	-3.02442  	0.00936  	-0.08565  	-65.34966  	-1.07411  	61.91496  	60.98200  	-20484.68185  	-4179.00761  	0.00434  	0.00003  	0.00403  	0.00460  	0.00493  	0.00000  	0.00000  
110.78607  	33.32184  	4.86750  	5.08514  	28.17322  	-1.18512  	0.02968  	0.20867  	0.20783  	-3.02442  	0.00450  	-0.08579  	-65.29750  	-1.07887  	61.33934  	61.58762  	-20485.25862  	-4178.96099  	0.00433  	0.00002  	0.00401  	0.00457  	0.00494  	0.00000  	0.00000  
111.78601  	33.32132  	4.86731  	5.08424  	28.17795  	-1.18512  	0.02941  	0.20784  	0.20818  	-3.02442  	0.00545  	-0.08568  	-65.23095  	-1.07539  	61.44129  	61.34030  	-20486.18190  	-4178.89554  	0.00433  	0.00003  	0.00402  	0.00456  	0.00493  	0.00000  	0.00000  
112.78611  	33.32145  	4.86691  	5.08573  	28.18119  	-1.18512  	0.02934  	0.20586  	0.21786  	-3.02442  	0.00766  	-0.08583  	-65.19143  	-1.08478  	64.29808  	60.75843  	-20486.91905  	-4178.96128  	0.00435  	0.00002  	0.00402  	0.00456  	0.00492  	0.00000  	0.00000  
113.78642  	33.32066  	4.86761  	5.08573  	28.18369  	-1.18512  	0.02795  	0.20435  	0.21273  	-3.02442  	0.00432  	-0.08584  	-65.14965  	-1.08127  	62.78418  	60.31176  	-20487.29660  	-4179.00300  	0.00434  	0.00002  	0.00401  	0.00454  	0.00492  	0.00000  	0.00000  
