10/25/2024 11:28:36Time	T_hot_in(C)	T_cold_in(C)	T_cold_out(C)	T_hot_out(C)	mdot_cold(kg/s)	ASFASIFUAS(kg/s)	Diferencial_cold(bar)	Diferencial_hot(bar)	mdot_hot(kg/s)	ABS_cold(bar)	ABS_hot(bar)	q_cold(kW)	q_hot(kW)	ASFASYFY	Tau_cold_haste	Re_hot	Re_cold	U_global	PSIG_cold(bar)	R_fouling	PSIG_hot(bar)	PSID_hot(bar)	m_dot_hot	PSID_cold(bar)	m_dot_cold
1.74682  	0.00000  	0.00000  	0.00000  	0.00000  	-1.18512  	-0.20833  	-0.86278  	-2.50000  	-3.02442  	-1.25000  	-0.08628  	-0.00000  	-0.00000  	-737.84722  	-254.63905  	-9234.48090  	-3618.55272  	0.00000  	0.00000  	0.00000  	0.00000  	0.00000  	0.00000  	0.00000  
2.74818  	33.28909  	5.07374  	5.43868  	24.47457  	-1.18512  	0.02873  	0.72407  	0.71784  	-3.02442  	0.07233  	-0.08570  	-111.77628  	-1.80916  	211.86317  	213.70154  	-19671.37455  	-4212.45130  	0.00515  	0.00003  	0.00423  	0.00455  	0.00731  	0.00000  	0.00000  
3.75049  	33.28983  	5.07405  	5.43895  	24.47279  	-1.18512  	0.03007  	0.72574  	0.72542  	-3.02442  	0.07191  	-0.08570  	-111.80826  	-1.80896  	214.10037  	214.19534  	-19671.14909  	-4212.48637  	0.00516  	0.00003  	0.00423  	0.00458  	0.00732  	0.00000  	0.00000  
4.75084  	33.29012  	5.07406  	5.43855  	24.47362  	-1.18512  	0.02973  	0.72647  	0.72144  	-3.02442  	0.07465  	-0.08569  	-111.80144  	-1.80693  	212.92421  	214.41041  	-19671.39090  	-4212.46298  	0.00515  	0.00003  	0.00424  	0.00457  	0.00732  	0.00000  	0.00000  
5.75214  	33.29091  	5.07303  	5.43797  	24.47431  	-1.18512  	0.02944  	0.72704  	0.72285  	-3.02442  	0.07437  	-0.08565  	-111.80264  	-1.80916  	213.33997  	214.57832  	-19671.71248  	-4212.36677  	0.00516  	0.00003  	0.00424  	0.00457  	0.00732  	0.00000  	0.00000  
6.75353  	33.29412  	5.07328  	5.43822  	24.47452  	-1.18512  	0.02957  	0.72791  	0.72778  	-3.02442  	0.07267  	-0.08571  	-111.84068  	-1.80916  	214.79574  	214.83362  	-19672.45295  	-4212.39629  	0.00516  	0.00003  	0.00423  	0.00457  	0.00733  	0.00000  	0.00000  
7.75383  	33.29236  	5.07342  	5.43783  	24.47596  	-1.18512  	0.02925  	0.72906  	0.72329  	-3.02442  	0.07281  	-0.08570  	-111.80017  	-1.80653  	213.47245  	215.17463  	-19672.38631  	-4212.38163  	0.00516  	0.00003  	0.00423  	0.00456  	0.00733  	0.00000  	0.00000  
8.75418  	33.29152  	5.07363  	5.43816  	24.47787  	-1.18512  	0.02950  	0.72966  	0.72847  	-3.02442  	0.07288  	-0.08572  	-111.76532  	-1.80714  	215.00097  	215.35233  	-19672.61694  	-4212.41343  	0.00517  	0.00003  	0.00423  	0.00457  	0.00734  	0.00000  	0.00000  
9.75650  	33.29172  	5.07374  	5.43862  	24.47969  	-1.18512  	0.02965  	0.73122  	0.73171  	-3.02442  	0.07153  	-0.08571  	-111.74465  	-1.80885  	215.95607  	215.81156  	-19673.05425  	-4212.44760  	0.00517  	0.00003  	0.00423  	0.00457  	0.00734  	0.00000  	0.00000  
10.75682  	33.29145  	5.07323  	5.43858  	24.48164  	-1.18512  	0.02921  	0.73106  	0.72696  	-3.02442  	0.07306  	-0.08568  	-111.71656  	-1.81119  	214.55321  	215.76560  	-19673.41890  	-4212.41458  	0.00516  	0.00003  	0.00423  	0.00456  	0.00734  	0.00000  	0.00000  
11.75914  	33.29356  	5.07321  	5.43868  	24.48407  	-1.18512  	0.02890  	0.73237  	0.73076  	-3.02442  	0.07385  	-0.08570  	-111.71257  	-1.81179  	215.67620  	216.14950  	-19674.40235  	-4212.41946  	0.00517  	0.00003  	0.00424  	0.00455  	0.00735  	0.00000  	0.00000  
12.76091  	33.29438  	5.07303  	5.43893  	24.48728  	-1.18512  	0.02924  	0.73315  	0.72911  	-3.02442  	0.07464  	-0.08572  	-111.68223  	-1.81391  	215.18806  	216.37969  	-19675.27580  	-4212.42371  	0.00517  	0.00003  	0.00424  	0.00456  	0.00735  	0.00000  	0.00000  
13.76420  	33.29531  	5.07322  	5.43945  	24.48927  	-1.18512  	0.02896  	0.73298  	0.72897  	-3.02442  	0.07172  	-0.08569  	-111.66869  	-1.81554  	215.14606  	216.33114  	-19675.90798  	-4212.46677  	0.00517  	0.00003  	0.00423  	0.00456  	0.00735  	0.00000  	0.00000  
14.76760  	33.29561  	5.07406  	5.43950  	24.49169  	-1.18512  	0.02863  	0.73371  	0.73159  	-3.02442  	0.07296  	-0.08566  	-111.64176  	-1.81162  	215.92143  	216.54570  	-19676.49862  	-4212.51964  	0.00517  	0.00003  	0.00423  	0.00455  	0.00736  	0.00000  	0.00000  
15.76889  	33.29564  	5.07433  	5.43829  	24.49523  	-1.18512  	0.02932  	0.73304  	0.73273  	-3.02442  	0.07196  	-0.08565  	-111.59733  	-1.80431  	216.25660  	216.34956  	-19677.27359  	-4212.46319  	0.00517  	0.00003  	0.00423  	0.00456  	0.00735  	0.00000  	0.00000  
16.77254  	33.29668  	5.07380  	5.44001  	24.49791  	-1.18512  	0.03036  	0.73472  	0.73353  	-3.02442  	0.07264  	-0.08573  	-111.57647  	-1.81545  	216.49300  	216.84557  	-19678.07904  	-4212.53496  	0.00517  	0.00003  	0.00423  	0.00458  	0.00736  	0.00000  	0.00000  
17.77386  	33.29701  	5.07435  	5.44034  	24.50080  	-1.18512  	0.03006  	0.73440  	0.72917  	-3.02442  	0.07221  	-0.08570  	-111.54413  	-1.81438  	215.20605  	216.74972  	-19678.77611  	-4212.58790  	0.00517  	0.00003  	0.00423  	0.00458  	0.00736  	0.00000  	0.00000  
18.77715  	33.29746  	5.07435  	5.43967  	24.50349  	-1.18512  	0.02992  	0.73548  	0.73426  	-3.02442  	0.07220  	-0.08576  	-111.51571  	-1.81103  	216.70993  	217.07015  	-19679.45712  	-4212.54724  	0.00517  	0.00002  	0.00423  	0.00457  	0.00736  	0.00000  	0.00000  
19.78049  	33.29752  	5.07519  	5.44009  	24.50684  	-1.18512  	0.02915  	0.73598  	0.73119  	-3.02442  	0.07262  	-0.08569  	-111.47391  	-1.80895  	215.80233  	217.21757  	-19680.19518  	-4212.62277  	0.00517  	0.00003  	0.00423  	0.00456  	0.00737  	0.00000  	0.00000  
20.78082  	33.29741  	5.07442  	5.44030  	24.50832  	-1.18512  	0.02739  	0.73505  	0.73642  	-3.02442  	0.07228  	-0.08566  	-111.45379  	-1.81380  	217.34494  	216.94157  	-19680.49324  	-4212.58919  	0.00518  	0.00003  	0.00423  	0.00453  	0.00736  	0.00000  	0.00000  
21.78314  	33.29787  	5.07421  	5.44096  	24.51135  	-1.18512  	0.02873  	0.73464  	0.73152  	-3.02442  	0.07363  	-0.08572  	-111.42120  	-1.81816  	215.90103  	216.82143  	-19681.24966  	-4212.61658  	0.00517  	0.00003  	0.00424  	0.00455  	0.00736  	0.00000  	0.00000  
22.78546  	33.29938  	5.07396  	5.44069  	24.51353  	-1.18512  	0.02898  	0.73324  	0.73151  	-3.02442  	0.07279  	-0.08571  	-111.41270  	-1.81799  	215.89674  	216.40672  	-19682.04853  	-4212.58525  	0.00517  	0.00003  	0.00423  	0.00456  	0.00735  	0.00000  	0.00000  
23.78575  	33.29938  	5.07476  	5.44077  	24.51595  	-1.18512  	0.02958  	0.73153  	0.72980  	-3.02442  	0.07275  	-0.08571  	-111.38200  	-1.81445  	215.39322  	215.90407  	-19682.57451  	-4212.63830  	0.00517  	0.00003  	0.00423  	0.00457  	0.00735  	0.00000  	0.00000  
24.78907  	33.29842  	5.07351  	5.44100  	24.51774  	-1.18512  	0.02852  	0.73056  	0.72421  	-3.02442  	0.07296  	-0.08570  	-111.34713  	-1.82180  	213.74353  	215.61528  	-19682.75444  	-4212.57692  	0.00516  	0.00003  	0.00423  	0.00455  	0.00734  	0.00000  	0.00000  
25.79241  	33.29871  	5.07359  	5.44166  	24.51982  	-1.18512  	0.02839  	0.72814  	0.72571  	-3.02442  	0.07338  	-0.08571  	-111.32447  	-1.82468  	214.18380  	214.90316  	-19683.26847  	-4212.62102  	0.00516  	0.00003  	0.00423  	0.00455  	0.00733  	0.00000  	0.00000  
26.79373  	33.29901  	5.07398  	5.44103  	24.52038  	-1.18512  	0.02944  	0.72721  	0.72314  	-3.02442  	0.07206  	-0.08575  	-111.32104  	-1.81960  	213.42820  	214.62780  	-19683.45447  	-4212.60689  	0.00516  	0.00002  	0.00423  	0.00457  	0.00733  	0.00000  	0.00000  
27.79705  	33.29666  	5.07389  	5.44077  	24.52090  	-1.18512  	0.02884  	0.72472  	0.72110  	-3.02442  	0.07358  	-0.08566  	-111.28477  	-1.81877  	212.82370  	213.89368  	-19683.05626  	-4212.58598  	0.00515  	0.00003  	0.00424  	0.00455  	0.00731  	0.00000  	0.00000  
28.79938  	33.29685  	5.07399  	5.44070  	24.52054  	-1.18512  	0.03034  	0.72347  	0.71824  	-3.02442  	0.07242  	-0.08571  	-111.29166  	-1.81796  	211.97912  	213.52288  	-19683.02048  	-4212.58751  	0.00515  	0.00003  	0.00423  	0.00458  	0.00731  	0.00000  	0.00000  
29.80072  	33.29703  	5.07435  	5.44050  	24.51888  	-1.18512  	0.02927  	0.72032  	0.71593  	-3.02442  	0.07413  	-0.08570  	-111.31502  	-1.81513  	211.29976  	212.59423  	-19682.69947  	-4212.59737  	0.00515  	0.00003  	0.00424  	0.00456  	0.00729  	0.00000  	0.00000  
30.80304  	33.29763  	5.07429  	5.43914  	24.51798  	-1.18512  	0.02869  	0.71833  	0.71376  	-3.02442  	0.07239  	-0.08574  	-111.33396  	-1.80873  	210.65869  	212.00746  	-19682.63466  	-4212.51168  	0.00514  	0.00003  	0.00423  	0.00455  	0.00728  	0.00000  	0.00000  
31.80636  	33.29550  	5.07425  	5.43835  	24.51624  	-1.18512  	0.02842  	0.71653  	0.71460  	-3.02442  	0.07364  	-0.08571  	-111.32915  	-1.80498  	210.90545  	211.47711  	-19681.79568  	-4212.46214  	0.00514  	0.00003  	0.00424  	0.00455  	0.00728  	0.00000  	0.00000  
32.80769  	33.29693  	5.07456  	5.43971  	24.51309  	-1.18512  	0.02851  	0.71329  	0.71039  	-3.02442  	0.07259  	-0.08574  	-111.38723  	-1.81019  	209.66486  	210.52058  	-19681.42195  	-4212.56217  	0.00514  	0.00003  	0.00423  	0.00455  	0.00726  	0.00000  	0.00000  
33.81101  	33.29652  	5.07451  	5.43842  	24.50900  	-1.18512  	0.02848  	0.71088  	0.70464  	-3.02442  	0.07174  	-0.08570  	-111.43390  	-1.80404  	207.96585  	209.80872  	-19680.44713  	-4212.48176  	0.00513  	0.00003  	0.00423  	0.00455  	0.00725  	0.00000  	0.00000  
34.81432  	33.29589  	5.07366  	5.43882  	24.50512  	-1.18512  	0.02808  	0.71077  	0.70695  	-3.02442  	0.07164  	-0.08573  	-111.47515  	-1.81025  	208.64834  	209.77547  	-19679.46992  	-4212.45538  	0.00513  	0.00003  	0.00423  	0.00454  	0.00725  	0.00000  	0.00000  
35.81464  	33.29423  	5.07429  	5.43786  	24.50013  	-1.18512  	0.02879  	0.71356  	0.70917  	-3.02442  	0.07358  	-0.08568  	-111.51740  	-1.80237  	209.30311  	210.59820  	-19678.02911  	-4212.43503  	0.00513  	0.00003  	0.00424  	0.00455  	0.00726  	0.00000  	0.00000  
36.81696  	33.29361  	5.07450  	5.43761  	24.49472  	-1.18512  	0.02888  	0.71601  	0.71160  	-3.02442  	0.07175  	-0.08570  	-111.57803  	-1.80007  	210.02066  	211.32327  	-19676.72092  	-4212.43296  	0.00514  	0.00003  	0.00423  	0.00455  	0.00727  	0.00000  	0.00000  
37.82057  	33.29412  	5.07418  	5.43826  	24.49022  	-1.18512  	0.02776  	0.71733  	0.71597  	-3.02442  	0.07259  	-0.08570  	-111.64153  	-1.80488  	211.30974  	211.71079  	-19675.85693  	-4212.45237  	0.00515  	0.00003  	0.00423  	0.00453  	0.00728  	0.00000  	0.00000  
38.82190  	33.29459  	5.07434  	5.43950  	24.48635  	-1.18512  	0.02944  	0.71902  	0.71617  	-3.02442  	0.07449  	-0.08579  	-111.69669  	-1.81027  	211.36967  	212.21075  	-19675.11958  	-4212.53664  	0.00515  	0.00002  	0.00424  	0.00457  	0.00729  	0.00000  	0.00000  
39.82433  	33.29626  	5.07432  	5.43848  	24.48322  	-1.18512  	0.02934  	0.72095  	0.71756  	-3.02442  	0.07356  	-0.08574  	-111.75742  	-1.80531  	211.77991  	212.78104  	-19674.80351  	-4212.47459  	0.00515  	0.00003  	0.00424  	0.00456  	0.00730  	0.00000  	0.00000  
40.82565  	33.29730  	5.07460  	5.43833  	24.48097  	-1.18512  	0.02927  	0.72199  	0.71939  	-3.02442  	0.07260  	-0.08567  	-111.79927  	-1.80315  	212.32120  	213.08739  	-19674.54063  	-4212.48205  	0.00515  	0.00003  	0.00423  	0.00456  	0.00730  	0.00000  	0.00000  
41.82598  	33.29604  	5.07340  	5.43909  	24.47871  	-1.18512  	0.02788  	0.72281  	0.72104  	-3.02442  	0.07326  	-0.08576  	-111.81200  	-1.81289  	212.80651  	213.32997  	-19673.77863  	-4212.45560  	0.00515  	0.00002  	0.00423  	0.00454  	0.00731  	0.00000  	0.00000  
42.82930  	33.29745  	5.07388  	5.43954  	24.47707  	-1.18512  	0.02744  	0.72357  	0.72186  	-3.02442  	0.07339  	-0.08569  	-111.85056  	-1.81275  	213.04991  	213.55417  	-19673.73024  	-4212.51157  	0.00515  	0.00003  	0.00423  	0.00453  	0.00731  	0.00000  	0.00000  
43.83261  	33.29697  	5.07364  	5.43944  	24.47724  	-1.18512  	0.02845  	0.72572  	0.72340  	-3.02442  	0.07269  	-0.08567  	-111.84233  	-1.81341  	213.50352  	214.18731  	-19673.66249  	-4212.49135  	0.00516  	0.00003  	0.00423  	0.00455  	0.00732  	0.00000  	0.00000  
44.83393  	33.29962  	5.07379  	5.43806  	24.47682  	-1.18512  	0.02846  	0.72554  	0.72629  	-3.02442  	0.07256  	-0.08569  	-111.88132  	-1.80583  	214.35615  	214.13429  	-19674.14575  	-4212.41723  	0.00516  	0.00003  	0.00423  	0.00455  	0.00732  	0.00000  	0.00000  
45.83626  	33.29974  	5.07398  	5.43771  	24.47722  	-1.18512  	0.02920  	0.72847  	0.72305  	-3.02442  	0.07238  	-0.08571  	-111.87774  	-1.80317  	213.40134  	214.99943  	-19674.25885  	-4212.40714  	0.00516  	0.00003  	0.00423  	0.00456  	0.00733  	0.00000  	0.00000  
46.83671  	33.30006  	5.07290  	5.43769  	24.47948  	-1.18512  	0.02900  	0.72845  	0.72414  	-3.02442  	0.07068  	-0.08571  	-111.85315  	-1.80839  	213.72102  	214.99322  	-19674.81724  	-4212.34144  	0.00516  	0.00003  	0.00423  	0.00456  	0.00733  	0.00000  	0.00000  
47.84002  	33.29888  	5.07249  	5.43890  	24.48063  	-1.18512  	0.03014  	0.72971  	0.72523  	-3.02442  	0.07165  	-0.08567  	-111.82355  	-1.81646  	214.04217  	215.36535  	-19674.80982  	-4212.38948  	0.00516  	0.00003  	0.00423  	0.00458  	0.00734  	0.00000  	0.00000  
48.84234  	33.30054  	5.07280  	5.43774  	24.48194  	-1.18512  	0.02882  	0.73016  	0.72761  	-3.02442  	0.07531  	-0.08574  	-111.82813  	-1.80916  	214.74477  	215.49749  	-19675.45272  	-4212.33913  	0.00516  	0.00003  	0.00424  	0.00455  	0.00734  	0.00000  	0.00000  
49.84267  	33.30004  	5.07196  	5.43817  	24.48443  	-1.18512  	0.02970  	0.73155  	0.72818  	-3.02442  	0.07440  	-0.08574  	-111.79014  	-1.81546  	214.91403  	215.90899  	-19675.88642  	-4212.31369  	0.00517  	0.00003  	0.00424  	0.00457  	0.00735  	0.00000  	0.00000  
50.84498  	33.30131  	5.07279  	5.43806  	24.48707  	-1.18512  	0.03040  	0.73145  	0.73239  	-3.02442  	0.07382  	-0.08570  	-111.77279  	-1.81079  	216.15806  	215.88018  	-19676.73096  	-4212.35738  	0.00517  	0.00003  	0.00424  	0.00458  	0.00735  	0.00000  	0.00000  
51.84730  	33.30084  	5.07215  	5.43776  	24.48893  	-1.18512  	0.02939  	0.73164  	0.73157  	-3.02442  	0.07251  	-0.08567  	-111.74326  	-1.81248  	215.91387  	215.93686  	-19677.03326  	-4212.30109  	0.00517  	0.00003  	0.00423  	0.00456  	0.00735  	0.00000  	0.00000  
52.84962  	33.30118  	5.07318  	5.43787  	24.49106  	-1.18512  	0.02869  	0.73313  	0.73295  	-3.02442  	0.07397  	-0.08569  	-111.72049  	-1.80792  	216.32112  	216.37436  	-19677.56783  	-4212.36952  	0.00517  	0.00003  	0.00424  	0.00455  	0.00735  	0.00000  	0.00000  
53.85092  	33.29971  	5.07294  	5.43841  	24.49414  	-1.18512  	0.02949  	0.73260  	0.73191  	-3.02442  	0.07327  	-0.08578  	-111.66285  	-1.81180  	216.01406  	216.21800  	-19677.91657  	-4212.38713  	0.00517  	0.00002  	0.00423  	0.00457  	0.00735  	0.00000  	0.00000  
54.85426  	33.30180  	5.07325  	5.43775  	24.49749  	-1.18512  	0.02851  	0.73407  	0.73058  	-3.02442  	0.07377  	-0.08572  	-111.64683  	-1.80695  	215.62284  	216.65369  	-19679.09855  	-4212.36614  	0.00517  	0.00003  	0.00424  	0.00455  	0.00736  	0.00000  	0.00000  
55.85757  	33.30207  	5.07272  	5.43792  	24.50093  	-1.18512  	0.02849  	0.73436  	0.73490  	-3.02442  	0.07165  	-0.08568  	-111.60667  	-1.81046  	216.89876  	216.73872  	-19679.90210  	-4212.34500  	0.00518  	0.00003  	0.00423  	0.00455  	0.00736  	0.00000  	0.00000  
56.85895  	33.30391  	5.07310  	5.43863  	24.50393  	-1.18512  	0.03035  	0.73486  	0.73326  	-3.02442  	0.07373  	-0.08573  	-111.59194  	-1.81207  	216.41379  	216.88454  	-19680.95170  	-4212.41033  	0.00517  	0.00003  	0.00424  	0.00458  	0.00736  	0.00000  	0.00000  
57.86226  	33.30372  	5.07306  	5.43907  	24.50694  	-1.18512  	0.02885  	0.73505  	0.73515  	-3.02442  	0.07290  	-0.08569  	-111.55127  	-1.81446  	216.97027  	216.94105  	-19681.56177  	-4212.43436  	0.00518  	0.00003  	0.00423  	0.00455  	0.00736  	0.00000  	0.00000  
58.86374  	33.30380  	5.07196  	5.43750  	24.50986  	-1.18512  	0.02975  	0.73526  	0.73330  	-3.02442  	0.07219  	-0.08569  	-111.51533  	-1.81212  	216.42638  	217.00247  	-19682.21113  	-4212.27368  	0.00517  	0.00003  	0.00423  	0.00457  	0.00736  	0.00000  	0.00000  
59.86719  	33.30448  	5.07188  	5.43738  	24.51240  	-1.18512  	0.02939  	0.73264  	0.73532  	-3.02442  	0.07390  	-0.08565  	-111.49174  	-1.81197  	217.02230  	216.22941  	-19682.91018  	-4212.26158  	0.00518  	0.00003  	0.00424  	0.00456  	0.00735  	0.00000  	0.00000  
60.86951  	33.30549  	5.07278  	5.43770  	24.51503  	-1.18512  	0.03006  	0.73154  	0.72739  	-3.02442  	0.07267  	-0.08566  	-111.47134  	-1.80908  	214.68108  	215.90573  	-19683.69896  	-4212.33526  	0.00516  	0.00003  	0.00423  	0.00458  	0.00735  	0.00000  	0.00000  
61.87083  	33.30677  	5.07230  	5.43788  	24.51824  	-1.18512  	0.02855  	0.72925  	0.72430  	-3.02442  	0.07222  	-0.08569  	-111.44683  	-1.81231  	213.76866  	215.22945  	-19684.67185  	-4212.31678  	0.00516  	0.00003  	0.00423  	0.00455  	0.00734  	0.00000  	0.00000  
62.87414  	33.30705  	5.07224  	5.43771  	24.52007  	-1.18512  	0.02894  	0.72863  	0.72604  	-3.02442  	0.07315  	-0.08568  	-111.42720  	-1.81176  	214.28322  	215.04795  	-19685.13015  	-4212.30342  	0.00516  	0.00003  	0.00423  	0.00456  	0.00733  	0.00000  	0.00000  
63.87746  	33.30746  	5.07281  	5.43750  	24.52194  	-1.18512  	0.03049  	0.72679  	0.72407  	-3.02442  	0.07545  	-0.08570  	-111.40853  	-1.80792  	213.69996  	214.50330  	-19685.62474  	-4212.32512  	0.00516  	0.00003  	0.00424  	0.00459  	0.00732  	0.00000  	0.00000  
64.87891  	33.30768  	5.07294  	5.43704  	24.52315  	-1.18512  	0.02900  	0.72508  	0.71972  	-3.02442  	0.07195  	-0.08567  	-111.39611  	-1.80499  	212.41791  	214.00053  	-19685.93333  	-4212.30513  	0.00515  	0.00003  	0.00423  	0.00456  	0.00732  	0.00000  	0.00000  
65.88223  	33.30637  	5.07295  	5.43843  	24.52316  	-1.18512  	0.02936  	0.72155  	0.71567  	-3.02442  	0.07342  	-0.08565  	-111.37937  	-1.81184  	211.22337  	212.95839  	-19685.65176  	-4212.38879  	0.00515  	0.00003  	0.00423  	0.00456  	0.00730  	0.00000  	0.00000  
66.88455  	33.30741  	5.07246  	5.43904  	24.52272  	-1.18512  	0.03011  	0.71929  	0.71430  	-3.02442  	0.07295  	-0.08572  	-111.39795  	-1.81731  	210.81762  	212.29065  	-19685.78197  	-4212.39630  	0.00514  	0.00003  	0.00423  	0.00458  	0.00729  	0.00000  	0.00000  
67.88587  	33.30840  	5.07279  	5.43822  	24.52236  	-1.18512  	0.02832  	0.71661  	0.71164  	-3.02442  	0.07224  	-0.08570  	-111.41524  	-1.81161  	210.03186  	211.50003  	-19685.91908  	-4212.36680  	0.00514  	0.00003  	0.00423  	0.00454  	0.00728  	0.00000  	0.00000  
68.88919  	33.30809  	5.07401  	5.43895  	24.51996  	-1.18512  	0.02864  	0.71286  	0.71277  	-3.02442  	0.07138  	-0.08568  	-111.44167  	-1.80916  	210.36511  	210.39347  	-19685.33063  	-4212.48426  	0.00514  	0.00003  	0.00423  	0.00455  	0.00726  	0.00000  	0.00000  
69.89250  	33.30855  	5.07282  	5.43895  	24.51746  	-1.18512  	0.02996  	0.71089  	0.70829  	-3.02442  	0.07281  	-0.08564  	-111.47919  	-1.81508  	209.04389  	209.81206  	-19684.89039  	-4212.41262  	0.00513  	0.00003  	0.00423  	0.00458  	0.00725  	0.00000  	0.00000  
70.89382  	33.30719  	5.07253  	5.43797  	24.51425  	-1.18512  	0.02756  	0.71144  	0.71190  	-3.02442  	0.07300  	-0.08567  	-111.50271  	-1.81168  	210.10801  	209.97329  	-19683.89834  	-4212.33613  	0.00514  	0.00003  	0.00423  	0.00453  	0.00725  	0.00000  	0.00000  
71.89714  	33.30587  	5.07367  	5.43823  	24.51000  	-1.18512  	0.02951  	0.71372  	0.71236  	-3.02442  	0.07464  	-0.08567  	-111.53973  	-1.80725  	210.24508  	210.64760  	-19682.69054  	-4212.42000  	0.00514  	0.00003  	0.00424  	0.00457  	0.00726  	0.00000  	0.00000  
72.89893  	33.30756  	5.07326  	5.43871  	24.50551  	-1.18512  	0.03081  	0.71659  	0.71411  	-3.02442  	0.07266  	-0.08571  	-111.61808  	-1.81167  	210.76127  	211.49318  	-19682.08360  	-4212.42424  	0.00514  	0.00003  	0.00423  	0.00459  	0.00728  	0.00000  	0.00000  
73.90125  	33.30542  	5.07314  	5.43769  	24.50276  	-1.18512  	0.02970  	0.71869  	0.71664  	-3.02442  	0.07186  	-0.08561  	-111.62592  	-1.80718  	211.50915  	212.11312  	-19681.02499  	-4212.35599  	0.00515  	0.00003  	0.00423  	0.00457  	0.00729  	0.00000  	0.00000  
74.90270  	33.30518  	5.07230  	5.43751  	24.49932  	-1.18512  	0.02867  	0.72025  	0.71670  	-3.02442  	0.07264  	-0.08571  	-111.66650  	-1.81051  	211.52570  	212.57434  	-19680.22688  	-4212.29490  	0.00515  	0.00003  	0.00423  	0.00455  	0.00729  	0.00000  	0.00000  
75.90602  	33.30767  	5.07213  	5.43675  	24.49640  	-1.18512  	0.03002  	0.72082  	0.71535  	-3.02442  	0.07191  	-0.08576  	-111.73523  	-1.80754  	211.12898  	212.74203  	-19680.13217  	-4212.23895  	0.00514  	0.00002  	0.00423  	0.00458  	0.00730  	0.00000  	0.00000  
76.90931  	33.30958  	5.07187  	5.43671  	24.49493  	-1.18512  	0.03025  	0.72194  	0.72067  	-3.02442  	0.07244  	-0.08571  	-111.77808  	-1.80865  	212.69872  	213.07164  	-19680.22748  	-4212.22083  	0.00515  	0.00003  	0.00423  	0.00458  	0.00730  	0.00000  	0.00000  
77.91263  	33.30934  	5.07229  	5.43791  	24.49286  	-1.18512  	0.02894  	0.72241  	0.72524  	-3.02442  	0.07317  	-0.08569  	-111.80113  	-1.81253  	214.04583  	213.21259  	-19679.72861  	-4212.31821  	0.00516  	0.00003  	0.00423  	0.00456  	0.00730  	0.00000  	0.00000  
78.91434  	33.31011  	5.07256  	5.43810  	24.49207  	-1.18512  	0.02960  	0.72374  	0.72429  	-3.02442  	0.07229  	-0.08569  	-111.82100  	-1.81213  	213.76510  	213.60492  	-19679.72360  	-4212.34583  	0.00516  	0.00003  	0.00423  	0.00457  	0.00731  	0.00000  	0.00000  
79.91613  	33.30887  	5.07277  	5.43722  	24.49251  	-1.18512  	0.03013  	0.72614  	0.72241  	-3.02442  	0.07324  	-0.08565  	-111.79969  	-1.80672  	213.21102  	214.31279  	-19679.55079  	-4212.30581  	0.00516  	0.00003  	0.00423  	0.00458  	0.00732  	0.00000  	0.00000  
80.91944  	33.31036  	5.07274  	5.43765  	24.49266  	-1.18512  	0.03039  	0.72677  	0.72803  	-3.02442  	0.07155  	-0.08570  	-111.81676  	-1.80905  	214.87115  	214.49833  	-19679.90535  	-4212.32951  	0.00516  	0.00003  	0.00423  	0.00458  	0.00732  	0.00000  	0.00000  
81.92076  	33.31233  	5.07260  	5.43878  	24.49368  	-1.18512  	0.02981  	0.72805  	0.72507  	-3.02442  	0.07246  	-0.08563  	-111.82860  	-1.81533  	213.99526  	214.87729  	-19680.55424  	-4212.38891  	0.00516  	0.00003  	0.00423  	0.00457  	0.00733  	0.00000  	0.00000  
82.92408  	33.31141  	5.07292  	5.43914  	24.49515  	-1.18512  	0.02963  	0.72926  	0.72678  	-3.02442  	0.07365  	-0.08575  	-111.79831  	-1.81552  	214.50189  	215.23340  	-19680.67342  	-4212.42979  	0.00516  	0.00002  	0.00424  	0.00457  	0.00734  	0.00000  	0.00000  
83.92640  	33.31318  	5.07202  	5.43845  	24.49673  	-1.18512  	0.02909  	0.72931  	0.72736  	-3.02442  	0.07215  	-0.08570  	-111.80080  	-1.81655  	214.67084  	215.24649  	-19681.39919  	-4212.33476  	0.00516  	0.00003  	0.00423  	0.00456  	0.00734  	0.00000  	0.00000  
84.92784  	33.31361  	5.07231  	5.43882  	24.49752  	-1.18512  	0.02852  	0.73084  	0.72681  	-3.02442  	0.07286  	-0.08568  	-111.79625  	-1.81697  	214.51113  	215.69978  	-19681.66489  	-4212.37414  	0.00516  	0.00003  	0.00423  	0.00455  	0.00734  	0.00000  	0.00000  
85.93019  	33.31337  	5.07341  	5.43999  	24.49966  	-1.18512  	0.03068  	0.73059  	0.72672  	-3.02442  	0.07355  	-0.08574  	-111.76592  	-1.81728  	214.48225  	215.62677  	-19682.07541  	-4212.51000  	0.00516  	0.00002  	0.00424  	0.00459  	0.00734  	0.00000  	0.00000  
86.93151  	33.31533  	5.07335  	5.43975  	24.50289  	-1.18512  	0.02809  	0.73173  	0.73048  	-3.02442  	0.07184  	-0.08562  	-111.74980  	-1.81643  	215.59228  	215.96265  	-19683.20074  	-4212.49219  	0.00517  	0.00003  	0.00423  	0.00454  	0.00735  	0.00000  	0.00000  
87.93283  	33.31739  	5.07320  	5.43803  	24.50506  	-1.18512  	0.02993  	0.73176  	0.73014  	-3.02442  	0.07240  	-0.08572  	-111.74863  	-1.80862  	215.49219  	215.97076  	-19684.11696  	-4212.38040  	0.00517  	0.00003  	0.00423  	0.00457  	0.00735  	0.00000  	0.00000  
88.93612  	33.31736  	5.07398  	5.43766  	24.50737  	-1.18512  	0.02976  	0.73279  	0.72852  	-3.02442  	0.07206  	-0.08574  	-111.71892  	-1.80293  	215.01477  	216.27569  	-19684.61065  	-4212.40458  	0.00517  	0.00003  	0.00423  	0.00457  	0.00735  	0.00000  	0.00000  
89.93576  	33.31694  	5.07357  	5.43831  	24.51061  	-1.18512  	0.02966  	0.73478  	0.72680  	-3.02442  	0.07264  	-0.08567  	-111.67255  	-1.80819  	214.50616  	216.86113  	-19685.22326  	-4212.41888  	0.00516  	0.00003  	0.00423  	0.00457  	0.00736  	0.00000  	0.00000  
90.93906  	33.31699  	5.07243  	5.43835  	24.51360  	-1.18512  	0.03045  	0.73444  	0.73168  	-3.02442  	0.07319  	-0.08576  	-111.63520  	-1.81401  	215.94745  	216.76320  	-19685.88086  	-4212.35324  	0.00517  	0.00002  	0.00423  	0.00458  	0.00736  	0.00000  	0.00000  
91.94137  	33.31798  	5.07202  	5.43963  	24.51698  	-1.18512  	0.03020  	0.73522  	0.73105  	-3.02442  	0.07273  	-0.08572  	-111.60480  	-1.82239  	215.76265  	216.99141  	-19686.82930  	-4212.40537  	0.00517  	0.00003  	0.00423  	0.00458  	0.00736  	0.00000  	0.00000  
92.94271  	33.32066  	5.07313  	5.43911  	24.51984  	-1.18512  	0.02976  	0.73447  	0.73276  	-3.02442  	0.07464  	-0.08568  	-111.60264  	-1.81433  	216.26707  	216.77004  	-19688.03007  	-4212.44031  	0.00517  	0.00003  	0.00424  	0.00457  	0.00736  	0.00000  	0.00000  
93.94603  	33.31893  	5.07334  	5.43954  	24.52302  	-1.18512  	0.02864  	0.73552  	0.73519  	-3.02442  	0.07340  	-0.08567  	-111.54024  	-1.81540  	216.98401  	217.07940  	-19688.34531  	-4212.47946  	0.00518  	0.00003  	0.00423  	0.00455  	0.00736  	0.00000  	0.00000  
94.94935  	33.32207  	5.07326  	5.43796  	24.52545  	-1.18512  	0.03065  	0.73505  	0.73388  	-3.02442  	0.07255  	-0.08566  	-111.54931  	-1.80793  	216.59751  	216.94265  	-19689.55055  	-4212.37951  	0.00517  	0.00003  	0.00423  	0.00459  	0.00736  	0.00000  	0.00000  
95.95067  	33.31919  	5.07378  	5.43872  	24.52915  	-1.18512  	0.02960  	0.73348  	0.73062  	-3.02442  	0.07233  	-0.08572  	-111.46588  	-1.80916  	215.63476  	216.47799  	-19689.72893  	-4212.45609  	0.00517  	0.00003  	0.00423  	0.00457  	0.00735  	0.00000  	0.00000  
96.95299  	33.32134  	5.07410  	5.43855  	24.53184  	-1.18512  	0.02961  	0.73097  	0.73041  	-3.02442  	0.07238  	-0.08569  	-111.45892  	-1.80670  	215.57201  	215.73733  	-19690.77933  	-4212.46538  	0.00517  	0.00003  	0.00423  	0.00457  	0.00734  	0.00000  	0.00000  
97.95631  	33.32025  	5.07344  	5.43934  	24.53377  	-1.18512  	0.02814  	0.73067  	0.72775  	-3.02442  	0.07417  	-0.08572  	-111.42073  	-1.81394  	214.78791  	215.64996  	-19690.96183  	-4212.47267  	0.00516  	0.00003  	0.00424  	0.00454  	0.00734  	0.00000  	0.00000  
98.95963  	33.32252  	5.07286  	5.44000  	24.53603  	-1.18512  	0.02940  	0.73015  	0.72616  	-3.02442  	0.07253  	-0.08574  	-111.42084  	-1.82005  	214.31727  	215.49573  	-19691.94504  	-4212.47815  	0.00516  	0.00003  	0.00423  	0.00456  	0.00734  	0.00000  	0.00000  
99.96094  	33.32107  	5.07346  	5.43955  	24.53759  	-1.18512  	0.02998  	0.72793  	0.72211  	-3.02442  	0.07293  	-0.08564  	-111.38263  	-1.81488  	213.12417  	214.83935  	-19691.96652  	-4212.48708  	0.00516  	0.00003  	0.00423  	0.00458  	0.00733  	0.00000  	0.00000  
100.96426  	33.32131  	5.07435  	5.43908  	24.53892  	-1.18512  	0.02832  	0.72589  	0.72080  	-3.02442  	0.07313  	-0.08571  	-111.36880  	-1.80812  	212.73499  	214.23823  	-19692.30759  	-4212.51210  	0.00515  	0.00003  	0.00423  	0.00454  	0.00732  	0.00000  	0.00000  
101.96558  	33.32303  	5.07466  	5.43940  	24.53878  	-1.18512  	0.02919  	0.72362  	0.71737  	-3.02442  	0.07493  	-0.08575  	-111.39241  	-1.80818  	211.72300  	213.56971  	-19692.65161  	-4212.54996  	0.00515  	0.00002  	0.00424  	0.00456  	0.00731  	0.00000  	0.00000  
102.96591  	33.32193  	5.07531  	5.44032  	24.53890  	-1.18512  	0.02891  	0.72075  	0.71951  	-3.02442  	0.07317  	-0.08569  	-111.37689  	-1.80952  	212.35460  	212.72018  	-19692.43849  	-4212.64409  	0.00515  	0.00003  	0.00423  	0.00456  	0.00730  	0.00000  	0.00000  
