10/25/2024 11:48:44Time	T_hot_in(C)	T_cold_in(C)	T_cold_out(C)	T_hot_out(C)	mdot_cold(kg/s)	ASFASIFUAS(kg/s)	Diferencial_cold(bar)	Diferencial_hot(bar)	mdot_hot(kg/s)	ABS_cold(bar)	ABS_hot(bar)	q_cold(kW)	q_hot(kW)	ASFASYFY	Tau_cold_haste	Re_hot	Re_cold	U_global	PSIG_cold(bar)	R_fouling	PSIG_hot(bar)	PSID_hot(bar)	m_dot_hot	PSID_cold(bar)	m_dot_cold
1.74935  	0.00000  	0.00000  	0.00000  	0.00000  	-1.18512  	-0.20833  	-0.86278  	-2.50000  	-3.02442  	-1.25000  	-0.08628  	-0.00000  	-0.00000  	-737.84722  	-254.63905  	-9234.48090  	-3618.55272  	0.00000  	0.00000  	0.00000  	0.00000  	0.00000  	0.00000  	0.00000  
2.75067  	33.27230  	5.08550  	5.44357  	23.91153  	-1.18512  	0.02553  	0.63389  	0.62799  	-3.02442  	0.07529  	-0.08573  	-118.70281  	-1.77509  	185.34324  	187.08630  	-19545.84246  	-4213.45065  	0.00500  	0.00003  	0.00424  	0.00449  	0.00690  	0.00000  	0.00000  
3.75296  	33.27483  	5.08519  	5.44357  	23.91340  	-1.18512  	0.02573  	0.63493  	0.62781  	-3.02442  	0.07202  	-0.08573  	-118.71122  	-1.77664  	185.29260  	187.39390  	-19546.79223  	-4213.43185  	0.00500  	0.00003  	0.00423  	0.00449  	0.00690  	0.00000  	0.00000  
4.75630  	33.27478  	5.08474  	5.44373  	23.91474  	-1.18512  	0.02752  	0.63562  	0.63007  	-3.02442  	0.07333  	-0.08573  	-118.69357  	-1.77968  	185.95689  	187.59676  	-19547.07034  	-4213.41456  	0.00501  	0.00003  	0.00423  	0.00453  	0.00690  	0.00000  	0.00000  
5.75762  	33.27501  	5.08481  	5.44361  	23.91772  	-1.18512  	0.02724  	0.63580  	0.63106  	-3.02442  	0.07306  	-0.08576  	-118.65875  	-1.77872  	186.24960  	187.64889  	-19547.76651  	-4213.41149  	0.00501  	0.00002  	0.00423  	0.00452  	0.00690  	0.00000  	0.00000  
6.76094  	33.27446  	5.08530  	5.44275  	23.91963  	-1.18512  	0.02699  	0.63601  	0.63270  	-3.02442  	0.07338  	-0.08573  	-118.62753  	-1.77205  	186.73383  	187.71016  	-19548.05909  	-4213.38955  	0.00501  	0.00003  	0.00423  	0.00452  	0.00691  	0.00000  	0.00000  
7.76226  	33.27490  	5.08504  	5.44243  	23.92263  	-1.18512  	0.02642  	0.63704  	0.63085  	-3.02442  	0.07194  	-0.08569  	-118.59499  	-1.77175  	186.18861  	188.01409  	-19548.80369  	-4213.35447  	0.00501  	0.00003  	0.00423  	0.00451  	0.00691  	0.00000  	0.00000  
8.76358  	33.27357  	5.08555  	5.44266  	23.92479  	-1.18512  	0.02486  	0.63678  	0.63226  	-3.02442  	0.07304  	-0.08567  	-118.55079  	-1.77034  	186.60483  	187.93739  	-19548.98517  	-4213.39954  	0.00501  	0.00003  	0.00423  	0.00448  	0.00691  	0.00000  	0.00000  
9.76689  	33.27392  	5.08482  	5.44203  	23.92860  	-1.18512  	0.02739  	0.63610  	0.63477  	-3.02442  	0.07410  	-0.08573  	-118.50701  	-1.77087  	187.34633  	187.73831  	-19549.88362  	-4213.31747  	0.00502  	0.00003  	0.00424  	0.00453  	0.00691  	0.00000  	0.00000  
10.76823  	33.27355  	5.08494  	5.44240  	23.93090  	-1.18512  	0.02549  	0.63434  	0.63215  	-3.02442  	0.07146  	-0.08574  	-118.47308  	-1.77206  	186.57310  	187.21867  	-19550.30250  	-4213.34713  	0.00501  	0.00003  	0.00423  	0.00449  	0.00690  	0.00000  	0.00000  
11.76855  	33.27394  	5.08468  	5.44267  	23.93386  	-1.18512  	0.02510  	0.63295  	0.62987  	-3.02442  	0.07219  	-0.08562  	-118.44053  	-1.77474  	185.90056  	186.80856  	-19551.02521  	-4213.34738  	0.00501  	0.00003  	0.00423  	0.00448  	0.00689  	0.00000  	0.00000  
12.77090  	33.27328  	5.08513  	5.44429  	23.93543  	-1.18512  	0.02607  	0.63307  	0.63136  	-3.02442  	0.07363  	-0.08569  	-118.41221  	-1.78053  	186.33817  	186.84501  	-19551.22106  	-4213.47184  	0.00501  	0.00003  	0.00424  	0.00450  	0.00689  	0.00000  	0.00000  
13.77422  	33.27273  	5.08513  	5.44327  	23.93716  	-1.18512  	0.02720  	0.63206  	0.62599  	-3.02442  	0.07240  	-0.08572  	-118.38331  	-1.77546  	184.75414  	186.54687  	-19551.47851  	-4213.41015  	0.00500  	0.00003  	0.00423  	0.00452  	0.00689  	0.00000  	0.00000  
14.77554  	33.27432  	5.08520  	5.44238  	23.93985  	-1.18512  	0.02633  	0.63085  	0.62746  	-3.02442  	0.07226  	-0.08574  	-118.36938  	-1.77066  	185.18763  	186.18844  	-19552.40328  	-4213.36134  	0.00500  	0.00003  	0.00423  	0.00451  	0.00688  	0.00000  	0.00000  
15.77785  	33.27378  	5.08500  	5.44163  	23.94043  	-1.18512  	0.02636  	0.62932  	0.62353  	-3.02442  	0.07311  	-0.08575  	-118.35513  	-1.76800  	184.02749  	185.73593  	-19552.41296  	-4213.30432  	0.00500  	0.00002  	0.00423  	0.00451  	0.00687  	0.00000  	0.00000  
16.78117  	33.27443  	5.08417  	5.44176  	23.94021  	-1.18512  	0.02616  	0.62817  	0.62314  	-3.02442  	0.07273  	-0.08574  	-118.36615  	-1.77272  	183.91426  	185.39779  	-19552.50559  	-4213.26223  	0.00500  	0.00003  	0.00423  	0.00450  	0.00687  	0.00000  	0.00000  
17.78249  	33.27722  	5.08503  	5.44212  	23.94003  	-1.18512  	0.02743  	0.62607  	0.61836  	-3.02442  	0.07449  	-0.08573  	-118.40386  	-1.77024  	182.50111  	184.77839  	-19553.06952  	-4213.33534  	0.00499  	0.00003  	0.00424  	0.00453  	0.00686  	0.00000  	0.00000  
18.78581  	33.27646  	5.08559  	5.44310  	23.93931  	-1.18512  	0.02599  	0.62444  	0.61823  	-3.02442  	0.07288  	-0.08570  	-118.40325  	-1.77230  	182.46478  	184.29513  	-19552.74959  	-4213.42815  	0.00499  	0.00003  	0.00423  	0.00450  	0.00685  	0.00000  	0.00000  
19.78812  	33.27564  	5.08471  	5.44343  	23.93796  	-1.18512  	0.02711  	0.62256  	0.61651  	-3.02442  	0.07432  	-0.08569  	-118.41009  	-1.77833  	181.95749  	183.74201  	-19552.28110  	-4213.39495  	0.00499  	0.00003  	0.00424  	0.00452  	0.00684  	0.00000  	0.00000  
20.78945  	33.27520  	5.08516  	5.44323  	23.93601  	-1.18512  	0.02590  	0.62048  	0.61448  	-3.02442  	0.07265  	-0.08571  	-118.42924  	-1.77510  	181.35738  	183.12664  	-19551.76226  	-4213.41029  	0.00498  	0.00003  	0.00423  	0.00450  	0.00683  	0.00000  	0.00000  
21.79176  	33.27400  	5.08535  	5.44303  	23.93304  	-1.18512  	0.02580  	0.61890  	0.61225  	-3.02442  	0.07207  	-0.08570  	-118.45165  	-1.77320  	180.69957  	182.66152  	-19550.86036  	-4213.40936  	0.00498  	0.00003  	0.00423  	0.00450  	0.00683  	0.00000  	0.00000  
22.79508  	33.27462  	5.08467  	5.44229  	23.93028  	-1.18512  	0.02521  	0.61590  	0.61024  	-3.02442  	0.07199  	-0.08570  	-118.49457  	-1.77288  	180.10425  	181.77698  	-19550.39941  	-4213.32470  	0.00498  	0.00003  	0.00423  	0.00448  	0.00681  	0.00000  	0.00000  
23.79843  	33.27324  	5.08484  	5.44311  	23.92697  	-1.18512  	0.02431  	0.61693  	0.61158  	-3.02442  	0.07280  	-0.08568  	-118.51897  	-1.77613  	180.49991  	182.07999  	-19549.38514  	-4213.38370  	0.00498  	0.00003  	0.00423  	0.00447  	0.00682  	0.00000  	0.00000  
24.79975  	33.27561  	5.08571  	5.44339  	23.92244  	-1.18512  	0.02620  	0.61904  	0.61097  	-3.02442  	0.07367  	-0.08574  	-118.60644  	-1.77318  	180.32109  	182.70371  	-19548.91525  	-4213.45282  	0.00498  	0.00003  	0.00424  	0.00450  	0.00683  	0.00000  	0.00000  
25.80204  	33.27389  	5.08597  	5.44426  	23.91878  	-1.18512  	0.02637  	0.62148  	0.61475  	-3.02442  	0.07234  	-0.08570  	-118.63106  	-1.77620  	181.43655  	183.42189  	-19547.75379  	-4213.52035  	0.00498  	0.00003  	0.00423  	0.00451  	0.00684  	0.00000  	0.00000  
26.80439  	33.27287  	5.08609  	5.44350  	23.91507  	-1.18512  	0.02596  	0.62310  	0.61810  	-3.02442  	0.07312  	-0.08570  	-118.66523  	-1.77185  	182.42478  	183.90037  	-19546.73054  	-4213.48215  	0.00499  	0.00003  	0.00423  	0.00450  	0.00685  	0.00000  	0.00000  
27.80622  	33.27533  	5.08550  	5.44323  	23.91183  	-1.18512  	0.02574  	0.62391  	0.61768  	-3.02442  	0.07281  	-0.08567  	-118.73753  	-1.77340  	182.30229  	184.13964  	-19546.56127  	-4213.43050  	0.00499  	0.00003  	0.00423  	0.00449  	0.00685  	0.00000  	0.00000  
28.80754  	33.27540  	5.08490  	5.44223  	23.90857  	-1.18512  	0.02534  	0.62516  	0.62068  	-3.02442  	0.07465  	-0.08572  	-118.77963  	-1.77144  	183.18564  	184.50932  	-19545.87133  	-4213.33478  	0.00499  	0.00003  	0.00424  	0.00449  	0.00686  	0.00000  	0.00000  
29.80986  	33.27413  	5.08460  	5.44209  	23.90736  	-1.18512  	0.02641  	0.62665  	0.62060  	-3.02442  	0.07425  	-0.08572  	-118.77897  	-1.77227  	183.16279  	184.94973  	-19545.33325  	-4213.30797  	0.00499  	0.00003  	0.00424  	0.00451  	0.00686  	0.00000  	0.00000  
30.81317  	33.27442  	5.08401  	5.44158  	23.90473  	-1.18512  	0.02666  	0.62860  	0.62188  	-3.02442  	0.07329  	-0.08566  	-118.81603  	-1.77265  	183.54183  	185.52298  	-19544.83052  	-4213.24183  	0.00500  	0.00003  	0.00423  	0.00451  	0.00687  	0.00000  	0.00000  
31.81350  	33.27704  	5.08418  	5.44107  	23.90498  	-1.18512  	0.02665  	0.62936  	0.62253  	-3.02442  	0.07200  	-0.08573  	-118.84601  	-1.76930  	183.73154  	185.74991  	-19545.44893  	-4213.22141  	0.00500  	0.00003  	0.00423  	0.00451  	0.00687  	0.00000  	0.00000  
32.81582  	33.27750  	5.08357  	5.44133  	23.90458  	-1.18512  	0.02634  	0.63010  	0.62724  	-3.02442  	0.07312  	-0.08576  	-118.85705  	-1.77356  	185.12260  	185.96695  	-19545.46255  	-4213.20049  	0.00500  	0.00002  	0.00423  	0.00451  	0.00688  	0.00000  	0.00000  
33.81913  	33.27745  	5.08330  	5.44137  	23.90450  	-1.18512  	0.02644  	0.63017  	0.62607  	-3.02442  	0.07416  	-0.08565  	-118.85742  	-1.77509  	184.77715  	185.98908  	-19545.43598  	-4213.18630  	0.00500  	0.00003  	0.00424  	0.00451  	0.00688  	0.00000  	0.00000  
34.82045  	33.27760  	5.08307  	5.44169  	23.90598  	-1.18512  	0.02448  	0.63191  	0.62443  	-3.02442  	0.07268  	-0.08574  	-118.84059  	-1.77785  	184.29325  	186.50036  	-19545.78790  	-4213.19217  	0.00500  	0.00003  	0.00423  	0.00447  	0.00689  	0.00000  	0.00000  
35.82177  	33.27936  	5.08193  	5.44062  	23.90796  	-1.18512  	0.02549  	0.63199  	0.62753  	-3.02442  	0.07305  	-0.08575  	-118.83772  	-1.77817  	185.20873  	186.52364  	-19546.59692  	-4213.05919  	0.00500  	0.00002  	0.00423  	0.00449  	0.00689  	0.00000  	0.00000  
36.82506  	33.27857  	5.08214  	5.44066  	23.90959  	-1.18512  	0.02719  	0.63465  	0.62489  	-3.02442  	0.07261  	-0.08574  	-118.80707  	-1.77736  	184.42952  	187.31106  	-19546.77855  	-4213.07477  	0.00500  	0.00003  	0.00423  	0.00452  	0.00690  	0.00000  	0.00000  
37.82841  	33.28045  	5.08286  	5.44058  	23.91162  	-1.18512  	0.02647  	0.63433  	0.62909  	-3.02442  	0.07371  	-0.08569  	-118.80527  	-1.77341  	185.66762  	187.21550  	-19547.62313  	-4213.11275  	0.00501  	0.00003  	0.00424  	0.00451  	0.00690  	0.00000  	0.00000  
38.82873  	33.28077  	5.08253  	5.44108  	23.91350  	-1.18512  	0.02675  	0.63530  	0.63254  	-3.02442  	0.07285  	-0.08572  	-118.78530  	-1.77746  	186.68754  	187.50230  	-19548.09881  	-4213.12296  	0.00501  	0.00003  	0.00423  	0.00451  	0.00690  	0.00000  	0.00000  
39.83208  	33.28067  	5.08259  	5.44099  	23.91646  	-1.18512  	0.02677  	0.63597  	0.62787  	-3.02442  	0.07349  	-0.08566  	-118.74656  	-1.77672  	185.30813  	187.70060  	-19548.71724  	-4213.12134  	0.00500  	0.00003  	0.00424  	0.00451  	0.00691  	0.00000  	0.00000  
40.83539  	33.28202  	5.08183  	5.44065  	23.91964  	-1.18512  	0.02614  	0.63570  	0.63217  	-3.02442  	0.07319  	-0.08572  	-118.72338  	-1.77882  	186.57766  	187.61905  	-19549.69586  	-4213.05576  	0.00501  	0.00003  	0.00423  	0.00450  	0.00690  	0.00000  	0.00000  
41.83672  	33.28220  	5.08217  	5.44005  	23.92120  	-1.18512  	0.02724  	0.63594  	0.63087  	-3.02442  	0.07428  	-0.08577  	-118.70594  	-1.77419  	186.19526  	187.68916  	-19550.07340  	-4213.03973  	0.00501  	0.00002  	0.00424  	0.00452  	0.00691  	0.00000  	0.00000  
42.84003  	33.28185  	5.08142  	5.43971  	23.92481  	-1.18512  	0.02683  	0.63603  	0.63227  	-3.02442  	0.07353  	-0.08575  	-118.65572  	-1.77621  	186.60669  	187.71574  	-19550.77935  	-4212.97412  	0.00501  	0.00002  	0.00424  	0.00452  	0.00691  	0.00000  	0.00000  
43.84235  	33.28192  	5.08204  	5.44001  	23.92765  	-1.18512  	0.02521  	0.63704  	0.63058  	-3.02442  	0.07342  	-0.08576  	-118.62060  	-1.77465  	186.10917  	188.01549  	-19551.40854  	-4213.02927  	0.00501  	0.00002  	0.00423  	0.00448  	0.00691  	0.00000  	0.00000  
44.84367  	33.28275  	5.08249  	5.43935  	23.93178  	-1.18512  	0.02650  	0.63492  	0.62840  	-3.02442  	0.07356  	-0.08574  	-118.57873  	-1.76913  	185.46448  	187.38855  	-19552.48097  	-4213.01703  	0.00501  	0.00002  	0.00424  	0.00451  	0.00690  	0.00000  	0.00000  
45.84699  	33.28329  	5.08246  	5.44034  	23.93490  	-1.18512  	0.02592  	0.63398  	0.62670  	-3.02442  	0.07219  	-0.08571  	-118.54596  	-1.77416  	184.96302  	187.11303  	-19553.27244  	-4213.07476  	0.00500  	0.00003  	0.00423  	0.00450  	0.00690  	0.00000  	0.00000  
46.85030  	33.28472  	5.08214  	5.44001  	23.93716  	-1.18512  	0.02529  	0.63137  	0.62876  	-3.02442  	0.07364  	-0.08566  	-118.53539  	-1.77412  	185.57093  	186.34223  	-19554.07122  	-4213.03494  	0.00501  	0.00003  	0.00424  	0.00449  	0.00688  	0.00000  	0.00000  
47.85163  	33.28704  	5.08152  	5.44078  	23.93903  	-1.18512  	0.02606  	0.63130  	0.62610  	-3.02442  	0.07246  	-0.08570  	-118.54122  	-1.78096  	184.78665  	186.32187  	-19554.97616  	-4213.04435  	0.00500  	0.00003  	0.00423  	0.00450  	0.00688  	0.00000  	0.00000  
48.85507  	33.28685  	5.08214  	5.44076  	23.94072  	-1.18512  	0.02554  	0.62992  	0.62275  	-3.02442  	0.07393  	-0.08565  	-118.51731  	-1.77784  	183.79890  	185.91289  	-19555.30147  	-4213.08055  	0.00500  	0.00003  	0.00424  	0.00449  	0.00688  	0.00000  	0.00000  
49.85839  	33.28712  	5.08162  	5.44084  	23.94232  	-1.18512  	0.02660  	0.62904  	0.62267  	-3.02442  	0.07344  	-0.08574  	-118.50054  	-1.78079  	183.77501  	185.65416  	-19555.70617  	-4213.05394  	0.00500  	0.00003  	0.00424  	0.00451  	0.00687  	0.00000  	0.00000  
50.85973  	33.28821  	5.08240  	5.44050  	23.94272  	-1.18512  	0.02540  	0.62820  	0.61944  	-3.02442  	0.07276  	-0.08570  	-118.50928  	-1.77527  	182.82149  	185.40735  	-19556.02829  	-4213.08033  	0.00499  	0.00003  	0.00423  	0.00449  	0.00687  	0.00000  	0.00000  
51.86302  	33.28987  	5.08270  	5.44155  	23.94230  	-1.18512  	0.02609  	0.62540  	0.61934  	-3.02442  	0.07300  	-0.08569  	-118.53563  	-1.77899  	182.79227  	184.58057  	-19556.29647  	-4213.16142  	0.00499  	0.00003  	0.00423  	0.00450  	0.00686  	0.00000  	0.00000  
52.86635  	33.28884  	5.08250  	5.43963  	23.94247  	-1.18512  	0.02692  	0.62251  	0.61967  	-3.02442  	0.07298  	-0.08564  	-118.52041  	-1.77045  	182.88834  	183.72701  	-19556.10986  	-4213.03457  	0.00499  	0.00003  	0.00423  	0.00452  	0.00684  	0.00000  	0.00000  
53.86768  	33.28840  	5.08260  	5.43912  	23.94203  	-1.18512  	0.02611  	0.62078  	0.61498  	-3.02442  	0.07201  	-0.08568  	-118.52041  	-1.76743  	181.50413  	183.21586  	-19555.92102  	-4213.00948  	0.00498  	0.00003  	0.00423  	0.00450  	0.00684  	0.00000  	0.00000  
54.87001  	33.28897  	5.08248  	5.44028  	23.94033  	-1.18512  	0.02538  	0.61902  	0.61415  	-3.02442  	0.07307  	-0.08574  	-118.54922  	-1.77375  	181.26005  	182.69671  	-19555.67510  	-4213.07170  	0.00498  	0.00003  	0.00423  	0.00449  	0.00683  	0.00000  	0.00000  
55.87332  	33.29050  	5.08243  	5.44033  	23.93756  	-1.18512  	0.02560  	0.61697  	0.60632  	-3.02442  	0.07350  	-0.08573  	-118.60369  	-1.77430  	178.94785  	182.09223  	-19555.40740  	-4213.07209  	0.00497  	0.00003  	0.00424  	0.00449  	0.00682  	0.00000  	0.00000  
56.87462  	33.28916  	5.08192  	5.43980  	23.93491  	-1.18512  	0.02582  	0.61518  	0.60764  	-3.02442  	0.07257  	-0.08574  	-118.62038  	-1.77416  	179.33769  	181.56451  	-19554.54381  	-4213.00912  	0.00497  	0.00003  	0.00423  	0.00450  	0.00681  	0.00000  	0.00000  
57.87796  	33.28932  	5.08185  	5.43994  	23.93084  	-1.18512  	0.02679  	0.61752  	0.60663  	-3.02442  	0.07429  	-0.08568  	-118.67399  	-1.77524  	179.03872  	182.25271  	-19553.69968  	-4213.01369  	0.00497  	0.00003  	0.00424  	0.00451  	0.00682  	0.00000  	0.00000  
58.88030  	33.28922  	5.08117  	5.43870  	23.92757  	-1.18512  	0.02324  	0.61891  	0.61331  	-3.02442  	0.07347  	-0.08561  	-118.71424  	-1.77246  	181.01036  	182.66351  	-19552.96916  	-4212.89868  	0.00498  	0.00003  	0.00424  	0.00445  	0.00683  	0.00000  	0.00000  
59.88163  	33.28894  	5.08096  	5.43783  	23.92332  	-1.18512  	0.02811  	0.62197  	0.61524  	-3.02442  	0.07368  	-0.08573  	-118.76462  	-1.76915  	181.58238  	183.56714  	-19551.99146  	-4212.83329  	0.00498  	0.00003  	0.00424  	0.00454  	0.00684  	0.00000  	0.00000  
60.88295  	33.29193  	5.08027  	5.43771  	23.91959  	-1.18512  	0.02634  	0.62240  	0.61630  	-3.02442  	0.07259  	-0.08569  	-118.84971  	-1.77196  	181.89350  	183.69475  	-19551.83032  	-4212.78493  	0.00499  	0.00003  	0.00423  	0.00451  	0.00684  	0.00000  	0.00000  
61.88626  	33.29146  	5.08119  	5.43788  	23.91692  	-1.18512  	0.02710  	0.62496  	0.61519  	-3.02442  	0.07422  	-0.08576  	-118.87773  	-1.76826  	181.56787  	184.45019  	-19551.15091  	-4212.85061  	0.00498  	0.00002  	0.00424  	0.00452  	0.00685  	0.00000  	0.00000  
62.88759  	33.29079  	5.07991  	5.43837  	23.91489  	-1.18512  	0.02570  	0.62592  	0.61885  	-3.02442  	0.07336  	-0.08570  	-118.89495  	-1.77703  	182.64641  	184.73364  	-19550.56484  	-4212.80359  	0.00499  	0.00003  	0.00423  	0.00449  	0.00686  	0.00000  	0.00000  
63.89090  	33.29303  	5.08003  	5.43749  	23.91267  	-1.18512  	0.02668  	0.62762  	0.62315  	-3.02442  	0.07396  	-0.08571  	-118.95147  	-1.77207  	183.91624  	185.23580  	-19550.57173  	-4212.75764  	0.00500  	0.00003  	0.00424  	0.00451  	0.00687  	0.00000  	0.00000  
64.89222  	33.29333  	5.08040  	5.43767  	23.91212  	-1.18512  	0.02689  	0.62904  	0.61941  	-3.02442  	0.07205  	-0.08573  	-118.96235  	-1.77114  	182.81067  	185.65513  	-19550.51616  	-4212.79006  	0.00499  	0.00003  	0.00423  	0.00452  	0.00687  	0.00000  	0.00000  
65.89354  	33.29177  	5.08013  	5.43657  	23.91165  	-1.18512  	0.02543  	0.62964  	0.62624  	-3.02442  	0.07361  	-0.08569  	-118.94848  	-1.76704  	184.82691  	185.83237  	-19550.07954  	-4212.70797  	0.00500  	0.00003  	0.00424  	0.00449  	0.00688  	0.00000  	0.00000  
66.89683  	33.29240  	5.08018  	5.43638  	23.91302  	-1.18512  	0.02685  	0.63094  	0.62381  	-3.02442  	0.07137  	-0.08574  	-118.93911  	-1.76585  	184.11010  	186.21407  	-19550.51057  	-4212.70005  	0.00500  	0.00003  	0.00423  	0.00452  	0.00688  	0.00000  	0.00000  
67.89818  	33.29408  	5.07970  	5.43581  	23.91359  	-1.18512  	0.02642  	0.63134  	0.62637  	-3.02442  	0.07239  	-0.08570  	-118.95320  	-1.76536  	184.86521  	186.33288  	-19550.99878  	-4212.63699  	0.00500  	0.00003  	0.00423  	0.00451  	0.00688  	0.00000  	0.00000  
68.89950  	33.29458  	5.08018  	5.43656  	23.91403  	-1.18512  	0.02593  	0.63288  	0.62645  	-3.02442  	0.07392  	-0.08573  	-118.95398  	-1.76670  	184.88960  	186.78828  	-19551.19959  	-4212.71058  	0.00500  	0.00003  	0.00424  	0.00450  	0.00689  	0.00000  	0.00000  
69.90083  	33.29494  	5.07972  	5.43699  	23.91637  	-1.18512  	0.02683  	0.63412  	0.62678  	-3.02442  	0.07149  	-0.08571  	-118.92893  	-1.77113  	184.98726  	187.15490  	-19551.78401  	-4212.70895  	0.00500  	0.00003  	0.00423  	0.00452  	0.00690  	0.00000  	0.00000  
70.90414  	33.29324  	5.08067  	5.43745  	23.91833  	-1.18512  	0.02691  	0.63353  	0.62990  	-3.02442  	0.07344  	-0.08575  	-118.88242  	-1.76872  	185.90795  	186.97845  	-19551.84271  	-4212.79350  	0.00501  	0.00002  	0.00424  	0.00452  	0.00689  	0.00000  	0.00000  
71.90549  	33.29615  	5.08118  	5.43851  	23.92077  	-1.18512  	0.02621  	0.63397  	0.62577  	-3.02442  	0.07429  	-0.08567  	-118.88826  	-1.77142  	184.68923  	187.10991  	-19552.99882  	-4212.88738  	0.00500  	0.00003  	0.00424  	0.00450  	0.00690  	0.00000  	0.00000  
72.90880  	33.29616  	5.07989  	5.43854  	23.92288  	-1.18512  	0.02628  	0.63489  	0.62860  	-3.02442  	0.07262  	-0.08563  	-118.86181  	-1.77799  	185.52350  	187.38138  	-19553.45691  	-4212.81172  	0.00501  	0.00003  	0.00423  	0.00450  	0.00690  	0.00000  	0.00000  
73.91211  	33.29758  	5.07918  	5.43659  	23.92480  	-1.18512  	0.02642  	0.63533  	0.62974  	-3.02442  	0.07346  	-0.08572  	-118.85551  	-1.77182  	185.86188  	187.50978  	-19554.17855  	-4212.65236  	0.00501  	0.00003  	0.00424  	0.00451  	0.00690  	0.00000  	0.00000  
74.91541  	33.29651  	5.07924  	5.43540  	23.92779  	-1.18512  	0.02717  	0.63615  	0.62911  	-3.02442  	0.07274  	-0.08568  	-118.80400  	-1.76566  	185.67390  	187.75318  	-19554.59646  	-4212.58471  	0.00501  	0.00003  	0.00423  	0.00452  	0.00691  	0.00000  	0.00000  
75.91676  	33.29645  	5.07913  	5.43551  	23.93138  	-1.18512  	0.02660  	0.63626  	0.62940  	-3.02442  	0.07193  	-0.08574  	-118.75781  	-1.76668  	185.76131  	187.78550  	-19555.35748  	-4212.58463  	0.00501  	0.00003  	0.00423  	0.00451  	0.00691  	0.00000  	0.00000  
76.92007  	33.29879  	5.07898  	5.43595  	23.93396  	-1.18512  	0.02647  	0.63742  	0.63266  	-3.02442  	0.07269  	-0.08573  	-118.75468  	-1.76968  	186.72346  	188.12720  	-19556.42321  	-4212.60192  	0.00501  	0.00003  	0.00423  	0.00451  	0.00691  	0.00000  	0.00000  
77.92242  	33.29879  	5.07962  	5.43706  	23.93703  	-1.18512  	0.02566  	0.63656  	0.63069  	-3.02442  	0.07381  	-0.08568  	-118.71567  	-1.77198  	186.14058  	187.87323  	-19557.08725  	-4212.70750  	0.00501  	0.00003  	0.00424  	0.00449  	0.00691  	0.00000  	0.00000  
78.92374  	33.29858  	5.07905  	5.43612  	23.94036  	-1.18512  	0.02494  	0.63518  	0.63161  	-3.02442  	0.07300  	-0.08568  	-118.67090  	-1.77014  	186.41401  	187.46692  	-19557.76077  	-4212.61659  	0.00501  	0.00003  	0.00423  	0.00448  	0.00690  	0.00000  	0.00000  
79.92705  	33.30104  	5.07831  	5.43772  	23.94337  	-1.18512  	0.02590  	0.63406  	0.62825  	-3.02442  	0.07327  	-0.08573  	-118.66387  	-1.78176  	185.42067  	187.13498  	-19558.94589  	-4212.66771  	0.00501  	0.00003  	0.00423  	0.00450  	0.00690  	0.00000  	0.00000  
80.93037  	33.29960  	5.07897  	5.43840  	23.94541  	-1.18512  	0.02611  	0.63441  	0.62526  	-3.02442  	0.07285  	-0.08577  	-118.61961  	-1.78187  	184.53788  	187.24048  	-19559.07491  	-4212.74868  	0.00500  	0.00002  	0.00423  	0.00450  	0.00690  	0.00000  	0.00000  
81.93169  	33.30024  	5.07863  	5.43834  	23.94730  	-1.18512  	0.02683  	0.63083  	0.62437  	-3.02442  	0.07304  	-0.08575  	-118.60387  	-1.78326  	184.27690  	186.18146  	-19559.62136  	-4212.72443  	0.00500  	0.00002  	0.00423  	0.00452  	0.00688  	0.00000  	0.00000  
82.93500  	33.30074  	5.07850  	5.43724  	23.94847  	-1.18512  	0.02515  	0.63077  	0.62251  	-3.02442  	0.07230  	-0.08569  	-118.59538  	-1.77845  	183.72697  	186.16395  	-19559.98288  	-4212.65075  	0.00500  	0.00003  	0.00423  	0.00448  	0.00688  	0.00000  	0.00000  
83.93678  	33.30214  	5.07863  	5.43815  	23.95005  	-1.18512  	0.02586  	0.62958  	0.62661  	-3.02442  	0.07451  	-0.08575  	-118.59309  	-1.78231  	184.93679  	185.81333  	-19560.62821  	-4212.71275  	0.00500  	0.00002  	0.00424  	0.00450  	0.00688  	0.00000  	0.00000  
84.94012  	33.30122  	5.07888  	5.43688  	23.94998  	-1.18512  	0.02592  	0.62866  	0.62384  	-3.02442  	0.07228  	-0.08565  	-118.58224  	-1.77478  	184.12033  	185.54317  	-19560.41330  	-4212.65205  	0.00500  	0.00003  	0.00423  	0.00450  	0.00687  	0.00000  	0.00000  
85.94147  	33.30039  	5.07932  	5.43780  	23.95058  	-1.18512  	0.02625  	0.62694  	0.62356  	-3.02442  	0.07277  	-0.08570  	-118.56423  	-1.77713  	184.03660  	185.03505  	-19560.36318  	-4212.73377  	0.00500  	0.00003  	0.00423  	0.00450  	0.00686  	0.00000  	0.00000  
86.94460  	33.29981  	5.07805  	5.43733  	23.95048  	-1.18512  	0.02652  	0.62545  	0.62170  	-3.02442  	0.07258  	-0.08569  	-118.55808  	-1.78110  	183.48777  	184.59387  	-19560.21466  	-4212.62946  	0.00499  	0.00003  	0.00423  	0.00451  	0.00686  	0.00000  	0.00000  
87.94789  	33.30142  	5.07867  	5.43609  	23.94935  	-1.18512  	0.02649  	0.62443  	0.61724  	-3.02442  	0.07250  	-0.08573  	-118.59291  	-1.77191  	182.17072  	184.29494  	-19560.31987  	-4212.59172  	0.00499  	0.00003  	0.00423  	0.00451  	0.00685  	0.00000  	0.00000  
88.95123  	33.29957  	5.07871  	5.43665  	23.94774  	-1.18512  	0.02572  	0.62126  	0.61666  	-3.02442  	0.07197  	-0.08567  	-118.58983  	-1.77445  	182.00175  	183.35781  	-19559.57198  	-4212.62765  	0.00499  	0.00003  	0.00423  	0.00449  	0.00684  	0.00000  	0.00000  
89.95153  	33.30100  	5.07802  	5.43725  	23.94570  	-1.18512  	0.02695  	0.61920  	0.61416  	-3.02442  	0.07270  	-0.08570  	-118.63379  	-1.78084  	181.26109  	182.75005  	-19559.43829  	-4212.62225  	0.00498  	0.00003  	0.00423  	0.00452  	0.00683  	0.00000  	0.00000  
90.95387  	33.29975  	5.07748  	5.43622  	23.94273  	-1.18512  	0.02569  	0.61609  	0.61229  	-3.02442  	0.07239  	-0.08562  	-118.65573  	-1.77844  	180.71027  	181.83314  	-19558.52691  	-4212.52799  	0.00498  	0.00003  	0.00423  	0.00449  	0.00681  	0.00000  	0.00000  
91.95619  	33.29944  	5.07750  	5.43634  	23.93927  	-1.18512  	0.02587  	0.61555  	0.61173  	-3.02442  	0.07383  	-0.08573  	-118.69554  	-1.77892  	180.54678  	181.67292  	-19557.71212  	-4212.53617  	0.00498  	0.00003  	0.00424  	0.00450  	0.00681  	0.00000  	0.00000  
92.95751  	33.29906  	5.07735  	5.43592  	23.93470  	-1.18512  	0.02507  	0.61736  	0.61199  	-3.02442  	0.07234  	-0.08569  	-118.74876  	-1.77760  	180.62331  	182.20647  	-19556.64212  	-4212.50218  	0.00498  	0.00003  	0.00423  	0.00448  	0.00682  	0.00000  	0.00000  
93.95981  	33.29803  	5.07771  	5.43486  	23.93011  	-1.18512  	0.02461  	0.61977  	0.61308  	-3.02442  	0.07266  	-0.08567  	-118.79384  	-1.77053  	180.94274  	182.91915  	-19555.42413  	-4212.46001  	0.00498  	0.00003  	0.00423  	0.00447  	0.00683  	0.00000  	0.00000  
94.96116  	33.29942  	5.07773  	5.43453  	23.92651  	-1.18512  	0.02630  	0.62185  	0.61577  	-3.02442  	0.07223  	-0.08569  	-118.85724  	-1.76881  	181.73764  	183.53194  	-19554.94761  	-4212.44156  	0.00499  	0.00003  	0.00423  	0.00450  	0.00684  	0.00000  	0.00000  
95.96248  	33.29977  	5.07852  	5.43597  	23.92093  	-1.18512  	0.02584  	0.62319  	0.61608  	-3.02442  	0.07315  	-0.08571  	-118.93239  	-1.77205  	181.82957  	183.92898  	-19553.81597  	-4212.57534  	0.00499  	0.00003  	0.00423  	0.00450  	0.00685  	0.00000  	0.00000  
96.96482  	33.30019  	5.07797  	5.43522  	23.91886  	-1.18512  	0.02564  	0.62384  	0.61602  	-3.02442  	0.07231  	-0.08569  	-118.96393  	-1.77104  	181.81005  	184.12083  	-19553.45694  	-4212.49801  	0.00499  	0.00003  	0.00423  	0.00449  	0.00685  	0.00000  	0.00000  
97.96714  	33.30044  	5.07756  	5.43593  	23.91694  	-1.18512  	0.02630  	0.62422  	0.61968  	-3.02442  	0.07342  	-0.08574  	-118.99147  	-1.77660  	182.89167  	184.23184  	-19553.09770  	-4212.51603  	0.00499  	0.00003  	0.00423  	0.00450  	0.00685  	0.00000  	0.00000  
98.96746  	33.29978  	5.07766  	5.43576  	23.91416  	-1.18512  	0.02504  	0.62590  	0.62090  	-3.02442  	0.07276  	-0.08569  	-119.01833  	-1.77527  	183.25309  	184.72597  	-19552.35313  	-4212.51180  	0.00499  	0.00003  	0.00423  	0.00448  	0.00686  	0.00000  	0.00000  
99.96876  	33.29977  	5.07697  	5.43521  	23.91252  	-1.18512  	0.02572  	0.62778  	0.61982  	-3.02442  	0.07379  	-0.08573  	-119.03904  	-1.77594  	182.93298  	185.28351  	-19551.99742  	-4212.43694  	0.00499  	0.00003  	0.00424  	0.00449  	0.00687  	0.00000  	0.00000  
100.97010  	33.29808  	5.07627  	5.43517  	23.91193  	-1.18512  	0.02651  	0.62954  	0.62313  	-3.02442  	0.07296  	-0.08575  	-119.02512  	-1.77921  	183.91063  	185.80284  	-19551.50360  	-4212.39277  	0.00500  	0.00002  	0.00423  	0.00451  	0.00688  	0.00000  	0.00000  
101.97342  	33.29948  	5.07609  	5.43501  	23.91216  	-1.18512  	0.02513  	0.62888  	0.62487  	-3.02442  	0.07296  	-0.08566  	-119.03992  	-1.77935  	184.42197  	185.60562  	-19551.85685  	-4212.37214  	0.00500  	0.00003  	0.00423  	0.00448  	0.00687  	0.00000  	0.00000  
102.97377  	33.30066  	5.07731  	5.43439  	23.91214  	-1.18512  	0.02508  	0.63010  	0.62692  	-3.02442  	0.07386  	-0.08570  	-119.05518  	-1.77021  	185.02728  	185.96828  	-19552.10685  	-4212.40801  	0.00500  	0.00003  	0.00424  	0.00448  	0.00688  	0.00000  	0.00000  
103.97710  	33.30075  	5.07592  	5.43446  	23.91351  	-1.18512  	0.02638  	0.63082  	0.62559  	-3.02442  	0.07329  	-0.08575  	-119.03897  	-1.77747  	184.63720  	186.18049  	-19552.42332  	-4212.32908  	0.00500  	0.00002  	0.00423  	0.00451  	0.00688  	0.00000  	0.00000  
104.98043  	33.30073  	5.07503  	5.43393  	23.91566  	-1.18512  	0.02605  	0.63230  	0.62756  	-3.02442  	0.07217  	-0.08574  	-119.01155  	-1.77926  	185.21724  	186.61610  	-19552.88321  	-4212.24369  	0.00500  	0.00002  	0.00423  	0.00450  	0.00689  	0.00000  	0.00000  
105.98073  	33.29981  	5.07589  	5.43419  	23.91718  	-1.18512  	0.02360  	0.63317  	0.62564  	-3.02442  	0.07319  	-0.08565  	-118.98052  	-1.77626  	184.64999  	186.87359  	-19553.01348  	-4212.31092  	0.00500  	0.00003  	0.00423  	0.00445  	0.00689  	0.00000  	0.00000  
106.98408  	33.30386  	5.07643  	5.43359  	23.91895  	-1.18512  	0.02632  	0.63381  	0.62732  	-3.02442  	0.07278  	-0.08573  	-119.00948  	-1.77058  	185.14510  	187.06074  	-19554.27108  	-4212.30731  	0.00500  	0.00003  	0.00423  	0.00451  	0.00690  	0.00000  	0.00000  
107.98741  	33.30155  	5.07516  	5.43517  	23.92179  	-1.18512  	0.02692  	0.63396  	0.62963  	-3.02442  	0.07366  	-0.08568  	-118.94421  	-1.78470  	185.82751  	187.10701  	-19554.38715  	-4212.32566  	0.00501  	0.00003  	0.00424  	0.00452  	0.00690  	0.00000  	0.00000  
108.98874  	33.30295  	5.07542  	5.43524  	23.92405  	-1.18512  	0.02646  	0.63345  	0.63195  	-3.02442  	0.07391  	-0.08572  	-118.93320  	-1.78379  	186.51405  	186.95449  	-19555.17905  	-4212.34582  	0.00501  	0.00003  	0.00424  	0.00451  	0.00689  	0.00000  	0.00000  
109.99205  	33.30315  	5.07611  	5.43457  	23.92663  	-1.18512  	0.02564  	0.63474  	0.62908  	-3.02442  	0.07199  	-0.08574  	-118.90296  	-1.77705  	185.66451  	187.33512  	-19555.78098  	-4212.34675  	0.00501  	0.00003  	0.00423  	0.00449  	0.00690  	0.00000  	0.00000  
110.99536  	33.30203  	5.07660  	5.43532  	23.92939  	-1.18512  	0.02705  	0.63576  	0.62669  	-3.02442  	0.07113  	-0.08572  	-118.85381  	-1.77835  	184.96188  	187.63649  	-19556.13610  	-4212.42115  	0.00500  	0.00003  	0.00423  	0.00452  	0.00690  	0.00000  	0.00000  
111.99666  	33.30404  	5.07639  	5.43479  	23.93338  	-1.18512  	0.02670  	0.63499  	0.62773  	-3.02442  	0.07289  	-0.08567  	-118.82869  	-1.77672  	185.26708  	187.41130  	-19557.43235  	-4212.37729  	0.00500  	0.00003  	0.00423  	0.00451  	0.00690  	0.00000  	0.00000  
112.99901  	33.30380  	5.07556  	5.43519  	23.93644  	-1.18512  	0.02704  	0.63560  	0.63112  	-3.02442  	0.07203  	-0.08569  	-118.78682  	-1.78282  	186.26793  	187.58958  	-19558.04216  	-4212.35110  	0.00501  	0.00003  	0.00423  	0.00452  	0.00690  	0.00000  	0.00000  
114.00233  	33.30311  	5.07561  	5.43508  	23.93929  	-1.18512  	0.02586  	0.63602  	0.63318  	-3.02442  	0.07206  	-0.08571  	-118.74196  	-1.78204  	186.87672  	187.71307  	-19558.50831  	-4212.34796  	0.00501  	0.00003  	0.00423  	0.00450  	0.00691  	0.00000  	0.00000  
115.00365  	33.30410  	5.07584  	5.43482  	23.94287  	-1.18512  	0.02691  	0.63391  	0.63403  	-3.02442  	0.07229  	-0.08572  	-118.70916  	-1.77958  	187.12602  	187.09235  	-19559.49674  	-4212.34572  	0.00501  	0.00003  	0.00423  	0.00452  	0.00690  	0.00000  	0.00000  
116.00699  	33.30522  	5.07625  	5.43490  	23.94580  	-1.18512  	0.02657  	0.63269  	0.62623  	-3.02442  	0.07324  	-0.08575  	-118.68619  	-1.77796  	184.82627  	186.73120  	-19560.37436  	-4212.37549  	0.00500  	0.00002  	0.00423  	0.00451  	0.00689  	0.00000  	0.00000  
117.01031  	33.30640  	5.07590  	5.43540  	23.94852  	-1.18512  	0.02557  	0.63216  	0.62821  	-3.02442  	0.07278  	-0.08570  	-118.66669  	-1.78221  	185.40899  	186.57458  	-19561.21707  	-4212.38376  	0.00501  	0.00003  	0.00423  	0.00449  	0.00689  	0.00000  	0.00000  
118.01194  	33.30692  	5.07645  	5.43558  	23.95003  	-1.18512  	0.02634  	0.63065  	0.62542  	-3.02442  	0.07253  	-0.08573  	-118.65404  	-1.78039  	184.58458  	186.13078  	-19561.65682  	-4212.42783  	0.00500  	0.00003  	0.00423  	0.00451  	0.00688  	0.00000  	0.00000  
119.01522  	33.30371  	5.07594  	5.43455  	23.95188  	-1.18512  	0.02675  	0.62956  	0.62251  	-3.02442  	0.07365  	-0.08569  	-118.58991  	-1.77778  	183.72729  	185.80891  	-19561.36249  	-4212.33604  	0.00500  	0.00003  	0.00424  	0.00451  	0.00688  	0.00000  	0.00000  
120.01657  	33.30694  	5.07583  	5.43486  	23.95265  	-1.18512  	0.02559  	0.62840  	0.62257  	-3.02442  	0.07336  	-0.08571  	-118.62117  	-1.77986  	183.74332  	185.46628  	-19562.22835  	-4212.34761  	0.00500  	0.00003  	0.00423  	0.00449  	0.00687  	0.00000  	0.00000  
121.01889  	33.30859  	5.07558  	5.43534  	23.95310  	-1.18512  	0.02516  	0.62646  	0.62337  	-3.02442  	0.07312  	-0.08566  	-118.63639  	-1.78350  	183.98078  	184.89186  	-19562.68304  	-4212.36172  	0.00500  	0.00003  	0.00423  	0.00448  	0.00686  	0.00000  	0.00000  
122.02221  	33.30806  	5.07561  	5.43622  	23.95410  	-1.18512  	0.02615  	0.62517  	0.61855  	-3.02442  	0.07405  	-0.08572  	-118.61681  	-1.78770  	182.55798  	184.51285  	-19562.78369  	-4212.41639  	0.00499  	0.00003  	0.00424  	0.00450  	0.00686  	0.00000  	0.00000  
123.02353  	33.30877  	5.07496  	5.43502  	23.95251  	-1.18512  	0.02591  	0.62327  	0.61806  	-3.02442  	0.07374  	-0.08562  	-118.64617  	-1.78498  	182.41461  	183.95247  	-19562.59356  	-4212.30532  	0.00499  	0.00003  	0.00424  	0.00450  	0.00685  	0.00000  	0.00000  
124.02685  	33.30838  	5.07567  	5.43522  	23.95167  	-1.18512  	0.02702  	0.62204  	0.61524  	-3.02442  	0.07296  	-0.08573  	-118.65183  	-1.78239  	181.58265  	183.58780  	-19562.32903  	-4212.35960  	0.00498  	0.00003  	0.00423  	0.00452  	0.00684  	0.00000  	0.00000  
125.03016  	33.30795  	5.07588  	5.43444  	23.95005  	-1.18512  	0.02489  	0.61847  	0.61516  	-3.02442  	0.07367  	-0.08568  	-118.66687  	-1.77753  	181.55868  	182.53493  	-19561.88529  	-4212.32499  	0.00498  	0.00003  	0.00424  	0.00448  	0.00682  	0.00000  	0.00000  
126.03046  	33.30903  	5.07554  	5.43360  	23.94747  	-1.18512  	0.02492  	0.61747  	0.60915  	-3.02442  	0.07278  	-0.08573  	-118.71342  	-1.77508  	179.78531  	182.23886  	-19561.55883  	-4212.25464  	0.00497  	0.00003  	0.00423  	0.00448  	0.00682  	0.00000  	0.00000  
127.03277  	33.30723  	5.07552  	5.43372  	23.94268  	-1.18512  	0.02529  	0.61628  	0.60745  	-3.02442  	0.07306  	-0.08569  	-118.75135  	-1.77574  	179.28229  	181.88861  	-19560.13486  	-4212.26037  	0.00497  	0.00003  	0.00423  	0.00449  	0.00681  	0.00000  	0.00000  
128.03712  	33.30882  	5.07564  	5.43388  	23.93997  	-1.18512  	0.02552  	0.61824  	0.60962  	-3.02442  	0.07341  	-0.08571  	-118.80579  	-1.77595  	179.92211  	182.46622  	-19559.89125  	-4212.27709  	0.00498  	0.00003  	0.00423  	0.00449  	0.00682  	0.00000  	0.00000  
129.03844  	33.30761  	5.07583  	5.43385  	23.93683  	-1.18512  	0.02577  	0.62034  	0.61385  	-3.02442  	0.07323  	-0.08570  	-118.83030  	-1.77484  	181.16973  	183.08763  	-19558.95200  	-4212.28714  	0.00498  	0.00003  	0.00423  	0.00449  	0.00683  	0.00000  	0.00000  
130.04075  	33.30826  	5.07530  	5.43452  	23.93300  	-1.18512  	0.02593  	0.62331  	0.61756  	-3.02442  	0.07377  	-0.08569  	-118.88710  	-1.78076  	182.26717  	183.96293  	-19558.26367  	-4212.29543  	0.00499  	0.00003  	0.00424  	0.00450  	0.00685  	0.00000  	0.00000  
131.04307  	33.30846  	5.07558  	5.43477  	23.92940  	-1.18512  	0.02566  	0.62451  	0.61730  	-3.02442  	0.07323  	-0.08569  	-118.93523  	-1.78064  	182.19047  	184.31639  	-19557.52724  	-4212.32753  	0.00499  	0.00003  	0.00423  	0.00449  	0.00685  	0.00000  	0.00000  
