10/25/2024 13:45:03Time	T_hot_in(C)	T_cold_in(C)	T_cold_out(C)	T_hot_out(C)	mdot_cold(kg/s)	ASFASIFUAS(kg/s)	Diferencial_cold(bar)	Diferencial_hot(bar)	mdot_hot(kg/s)	ABS_cold(bar)	ABS_hot(bar)	q_cold(kW)	q_hot(kW)	ASFASYFY	Tau_cold_haste	Re_hot	Re_cold	U_global	PSIG_cold(bar)	R_fouling	PSIG_hot(bar)	PSID_hot(bar)	m_dot_hot	PSID_cold(bar)	m_dot_cold
1.75234  	0.00000  	0.00000  	0.00000  	0.00000  	-1.18512  	-0.20833  	-0.86278  	-2.50000  	-3.02442  	-1.25000  	-0.08628  	-0.00000  	-0.00000  	-737.84722  	-254.63905  	-9234.48090  	-3618.55272  	0.00000  	0.00000  	0.00000  	0.00000  	0.00000  	0.00000  	0.00000  
2.75563  	33.31635  	5.07679  	5.41974  	23.22972  	-1.18512  	0.02397  	0.53478  	0.52712  	-3.02442  	0.07321  	-0.08570  	-127.90829  	-1.70011  	155.57263  	157.83499  	-19408.07248  	-4211.49787  	0.00484  	0.00003  	0.00423  	0.00446  	0.00644  	0.00000  	0.00000  
3.75697  	33.31705  	5.07692  	5.42022  	23.22931  	-1.18512  	0.02251  	0.53565  	0.52615  	-3.02442  	0.07364  	-0.08568  	-127.92228  	-1.70187  	155.28846  	158.08971  	-19408.13632  	-4211.53482  	0.00484  	0.00003  	0.00424  	0.00443  	0.00644  	0.00000  	0.00000  
4.76029  	33.31709  	5.07667  	5.42091  	23.22948  	-1.18512  	0.02327  	0.53715  	0.52643  	-3.02442  	0.07332  	-0.08569  	-127.92061  	-1.70653  	155.37085  	158.53267  	-19408.18115  	-4211.56087  	0.00484  	0.00003  	0.00423  	0.00445  	0.00645  	0.00000  	0.00000  
5.76359  	33.31844  	5.07619  	5.42020  	23.22918  	-1.18512  	0.02163  	0.53746  	0.53111  	-3.02442  	0.07432  	-0.08566  	-127.94153  	-1.70541  	156.74984  	158.62545  	-19408.40810  	-4211.48986  	0.00485  	0.00003  	0.00424  	0.00442  	0.00645  	0.00000  	0.00000  
6.76391  	33.31927  	5.07675  	5.42035  	23.23096  	-1.18512  	0.02402  	0.53768  	0.52966  	-3.02442  	0.07278  	-0.08574  	-127.92964  	-1.70338  	156.32373  	158.69008  	-19408.97079  	-4211.53182  	0.00485  	0.00003  	0.00423  	0.00446  	0.00645  	0.00000  	0.00000  
7.76525  	33.31791  	5.07609  	5.42132  	23.23175  	-1.18512  	0.02281  	0.53930  	0.52758  	-3.02442  	0.07239  	-0.08568  	-127.90234  	-1.71146  	155.71046  	159.16940  	-19408.84812  	-4211.55083  	0.00484  	0.00003  	0.00423  	0.00444  	0.00646  	0.00000  	0.00000  
8.76862  	33.31799  	5.07677  	5.42219  	23.23394  	-1.18512  	0.02281  	0.53887  	0.53208  	-3.02442  	0.07242  	-0.08575  	-127.87550  	-1.71239  	157.03821  	159.04236  	-19409.33713  	-4211.64324  	0.00485  	0.00002  	0.00423  	0.00444  	0.00646  	0.00000  	0.00000  
9.76992  	33.31998  	5.07681  	5.42326  	23.23560  	-1.18512  	0.02328  	0.54025  	0.52892  	-3.02442  	0.07492  	-0.08575  	-127.87966  	-1.71750  	156.10593  	159.45012  	-19410.12446  	-4211.71001  	0.00485  	0.00002  	0.00424  	0.00445  	0.00646  	0.00000  	0.00000  
10.77227  	33.32185  	5.07752  	5.42372  	23.23767  	-1.18512  	0.02306  	0.53985  	0.53247  	-3.02442  	0.07205  	-0.08563  	-127.87700  	-1.71624  	157.15198  	159.33063  	-19410.97591  	-4211.78057  	0.00485  	0.00003  	0.00423  	0.00444  	0.00646  	0.00000  	0.00000  
11.77459  	33.32200  	5.07767  	5.42323  	23.23975  	-1.18512  	0.02308  	0.54171  	0.53162  	-3.02442  	0.07274  	-0.08565  	-127.85266  	-1.71309  	156.90190  	159.88053  	-19411.45652  	-4211.76034  	0.00485  	0.00003  	0.00423  	0.00444  	0.00647  	0.00000  	0.00000  
12.77392  	33.32447  	5.07679  	5.42306  	23.24279  	-1.18512  	0.02323  	0.53996  	0.53217  	-3.02442  	0.07342  	-0.08569  	-127.84539  	-1.71658  	157.06314  	159.36260  	-19412.64477  	-4211.69712  	0.00485  	0.00003  	0.00423  	0.00445  	0.00646  	0.00000  	0.00000  
13.77524  	33.32383  	5.07694  	5.42299  	23.24571  	-1.18512  	0.02316  	0.54207  	0.53158  	-3.02442  	0.07412  	-0.08573  	-127.80032  	-1.71553  	156.88891  	159.98657  	-19413.13867  	-4211.70221  	0.00485  	0.00003  	0.00424  	0.00444  	0.00647  	0.00000  	0.00000  
14.77855  	33.32265  	5.07731  	5.42407  	23.24816  	-1.18512  	0.02245  	0.54165  	0.53113  	-3.02442  	0.07125  	-0.08573  	-127.75408  	-1.71905  	156.75669  	159.86292  	-19413.41156  	-4211.78882  	0.00485  	0.00003  	0.00423  	0.00443  	0.00647  	0.00000  	0.00000  
15.77984  	33.32198  	5.07737  	5.42299  	23.25114  	-1.18512  	0.02341  	0.54058  	0.53390  	-3.02442  	0.07306  	-0.08567  	-127.70792  	-1.71340  	157.57543  	159.54671  	-19413.91098  	-4211.72727  	0.00485  	0.00003  	0.00423  	0.00445  	0.00647  	0.00000  	0.00000  
16.78020  	33.32441  	5.07708  	5.42329  	23.25443  	-1.18512  	0.02397  	0.53988  	0.53275  	-3.02442  	0.07373  	-0.08575  	-127.69704  	-1.71634  	157.23542  	159.34054  	-19415.14323  	-4211.72846  	0.00485  	0.00002  	0.00424  	0.00446  	0.00646  	0.00000  	0.00000  
17.78251  	33.32545  	5.07755  	5.42280  	23.25672  	-1.18512  	0.02282  	0.53849  	0.53302  	-3.02442  	0.07242  	-0.08574  	-127.68108  	-1.71155  	157.31509  	158.92955  	-19415.86311  	-4211.72756  	0.00485  	0.00003  	0.00423  	0.00444  	0.00646  	0.00000  	0.00000  
18.78583  	33.32493  	5.07739  	5.42260  	23.25946  	-1.18512  	0.02298  	0.53865  	0.52793  	-3.02442  	0.07314  	-0.08573  	-127.63976  	-1.71135  	155.81347  	158.97751  	-19416.34146  	-4211.70587  	0.00484  	0.00003  	0.00423  	0.00444  	0.00646  	0.00000  	0.00000  
19.78616  	33.32601  	5.07780  	5.42346  	23.26188  	-1.18512  	0.02431  	0.53764  	0.52970  	-3.02442  	0.07356  	-0.08571  	-127.62271  	-1.71359  	156.33367  	158.67889  	-19417.09746  	-4211.78139  	0.00485  	0.00003  	0.00424  	0.00447  	0.00645  	0.00000  	0.00000  
20.78947  	33.32605  	5.07791  	5.42349  	23.26342  	-1.18512  	0.02288  	0.53745  	0.52707  	-3.02442  	0.07349  	-0.08571  	-127.60370  	-1.71321  	155.55835  	158.62362  	-19417.43878  	-4211.79016  	0.00484  	0.00003  	0.00424  	0.00444  	0.00645  	0.00000  	0.00000  
21.79279  	33.32413  	5.07855  	5.42356  	23.26389  	-1.18512  	0.02285  	0.53581  	0.52941  	-3.02442  	0.07373  	-0.08566  	-127.57342  	-1.71035  	156.24844  	158.13703  	-19417.12442  	-4211.83234  	0.00485  	0.00003  	0.00424  	0.00444  	0.00644  	0.00000  	0.00000  
22.79411  	33.32523  	5.07802  	5.42351  	23.26424  	-1.18512  	0.02270  	0.53535  	0.52515  	-3.02442  	0.07192  	-0.08565  	-127.58301  	-1.71276  	154.99257  	158.00201  	-19417.43964  	-4211.79764  	0.00484  	0.00003  	0.00423  	0.00444  	0.00644  	0.00000  	0.00000  
23.79640  	33.32514  	5.07731  	5.42317  	23.26590  	-1.18512  	0.02412  	0.53384  	0.52692  	-3.02442  	0.07410  	-0.08574  	-127.56086  	-1.71460  	155.51315  	157.55741  	-19417.77585  	-4211.73510  	0.00484  	0.00003  	0.00424  	0.00446  	0.00643  	0.00000  	0.00000  
24.79875  	33.32703  	5.07657  	5.42350  	23.26443  	-1.18512  	0.02312  	0.53376  	0.52303  	-3.02442  	0.07339  	-0.08574  	-127.60350  	-1.71987  	154.36618  	157.53227  	-19417.86718  	-4211.70997  	0.00484  	0.00003  	0.00423  	0.00444  	0.00643  	0.00000  	0.00000  
25.80007  	33.32482  	5.07625  	5.42324  	23.26349  	-1.18512  	0.02323  	0.53185  	0.51896  	-3.02442  	0.07506  	-0.08575  	-127.58738  	-1.72021  	153.16653  	156.96967  	-19417.18970  	-4211.67563  	0.00483  	0.00002  	0.00424  	0.00445  	0.00643  	0.00000  	0.00000  
26.80139  	33.32430  	5.07639  	5.42247  	23.26269  	-1.18512  	0.02342  	0.53016  	0.52303  	-3.02442  	0.07340  	-0.08573  	-127.59090  	-1.71565  	154.36615  	156.47221  	-19416.90362  	-4211.63762  	0.00484  	0.00003  	0.00423  	0.00445  	0.00642  	0.00000  	0.00000  
27.80471  	33.32378  	5.07674  	5.42186  	23.26222  	-1.18512  	0.02314  	0.52831  	0.51885  	-3.02442  	0.07383  	-0.08573  	-127.59029  	-1.71091  	153.13272  	155.92569  	-19416.68801  	-4211.62265  	0.00483  	0.00003  	0.00424  	0.00444  	0.00641  	0.00000  	0.00000  
28.80603  	33.32212  	5.07584  	5.42137  	23.25966  	-1.18512  	0.02408  	0.52824  	0.51791  	-3.02442  	0.07419  	-0.08578  	-127.60185  	-1.71294  	152.85491  	155.90404  	-19415.77876  	-4211.53855  	0.00483  	0.00002  	0.00424  	0.00446  	0.00641  	0.00000  	0.00000  
29.80932  	33.32392  	5.07663  	5.42150  	23.25702  	-1.18512  	0.02270  	0.52584  	0.51536  	-3.02442  	0.07288  	-0.08575  	-127.65804  	-1.70968  	152.10322  	155.19439  	-19415.59774  	-4211.59373  	0.00482  	0.00002  	0.00423  	0.00444  	0.00640  	0.00000  	0.00000  
30.81263  	33.32349  	5.07662  	5.42128  	23.25506  	-1.18512  	0.02399  	0.52561  	0.51457  	-3.02442  	0.07235  	-0.08569  	-127.67755  	-1.70865  	151.86908  	155.12804  	-19415.08174  	-4211.58037  	0.00482  	0.00003  	0.00423  	0.00446  	0.00640  	0.00000  	0.00000  
31.81398  	33.32291  	5.07583  	5.42198  	23.25088  	-1.18512  	0.02203  	0.52644  	0.51581  	-3.02442  	0.07199  	-0.08573  	-127.72305  	-1.71600  	152.23635  	155.37343  	-19414.05463  	-4211.57445  	0.00483  	0.00003  	0.00423  	0.00442  	0.00640  	0.00000  	0.00000  
32.81730  	33.32128  	5.07588  	5.42024  	23.24593  	-1.18512  	0.02399  	0.52929  	0.51827  	-3.02442  	0.07269  	-0.08574  	-127.76524  	-1.70717  	152.96135  	156.21546  	-19412.63553  	-4211.47333  	0.00483  	0.00003  	0.00423  	0.00446  	0.00641  	0.00000  	0.00000  
33.81962  	33.32170  	5.07596  	5.42051  	23.24217  	-1.18512  	0.02337  	0.53076  	0.52238  	-3.02442  	0.07282  	-0.08570  	-127.81823  	-1.70808  	154.17562  	156.64891  	-19411.91296  	-4211.49399  	0.00484  	0.00003  	0.00423  	0.00445  	0.00642  	0.00000  	0.00000  
34.82094  	33.32381  	5.07614  	5.42165  	23.23903  	-1.18512  	0.02284  	0.53212  	0.52137  	-3.02442  	0.07287  	-0.08572  	-127.88481  	-1.71285  	153.87789  	157.05060  	-19411.69196  	-4211.57373  	0.00483  	0.00003  	0.00423  	0.00444  	0.00643  	0.00000  	0.00000  
35.82425  	33.32244  	5.07693  	5.42158  	23.23639  	-1.18512  	0.02387  	0.53383  	0.52335  	-3.02442  	0.07365  	-0.08573  	-127.90088  	-1.70856  	154.46046  	157.55327  	-19410.82493  	-4211.61667  	0.00484  	0.00003  	0.00424  	0.00446  	0.00643  	0.00000  	0.00000  
36.82557  	33.32271  	5.07715  	5.42264  	23.23443  	-1.18512  	0.02343  	0.53391  	0.52597  	-3.02442  	0.07094  	-0.08570  	-127.92919  	-1.71274  	155.23429  	157.57784  	-19410.46218  	-4211.69343  	0.00484  	0.00003  	0.00423  	0.00445  	0.00644  	0.00000  	0.00000  
37.82590  	33.32386  	5.07646  	5.42158  	23.23256  	-1.18512  	0.02250  	0.53655  	0.52655  	-3.02442  	0.07323  	-0.08567  	-127.96748  	-1.71093  	155.40554  	158.35756  	-19410.30716  	-4211.58825  	0.00484  	0.00003  	0.00423  	0.00443  	0.00645  	0.00000  	0.00000  
38.82921  	33.32389  	5.07727  	5.42172  	23.23201  	-1.18512  	0.02404  	0.53659  	0.52745  	-3.02442  	0.07427  	-0.08572  	-127.97470  	-1.70762  	155.66971  	158.36785  	-19410.19399  	-4211.64538  	0.00484  	0.00003  	0.00424  	0.00446  	0.00645  	0.00000  	0.00000  
39.83154  	33.32156  	5.07722  	5.42212  	23.23336  	-1.18512  	0.02254  	0.53828  	0.52686  	-3.02442  	0.07404  	-0.08568  	-127.92809  	-1.70985  	155.49633  	158.86722  	-19409.98352  	-4211.66662  	0.00484  	0.00003  	0.00424  	0.00443  	0.00646  	0.00000  	0.00000  
40.83285  	33.32246  	5.07679  	5.42111  	23.23326  	-1.18512  	0.02273  	0.53820  	0.52878  	-3.02442  	0.07362  	-0.08569  	-127.94091  	-1.70693  	156.06412  	158.84381  	-19410.15614  	-4211.58037  	0.00485  	0.00003  	0.00424  	0.00444  	0.00645  	0.00000  	0.00000  
41.83517  	33.32328  	5.07655  	5.42111  	23.23459  	-1.18512  	0.02416  	0.53943  	0.52914  	-3.02442  	0.07470  	-0.08573  	-127.93439  	-1.70816  	156.16924  	159.20786  	-19410.61844  	-4211.56549  	0.00485  	0.00003  	0.00424  	0.00446  	0.00646  	0.00000  	0.00000  
42.83747  	33.32362  	5.07713  	5.42088  	23.23654  	-1.18512  	0.02402  	0.53944  	0.52986  	-3.02442  	0.07406  	-0.08578  	-127.91400  	-1.70414  	156.38218  	159.21019  	-19411.11349  	-4211.58694  	0.00485  	0.00002  	0.00424  	0.00446  	0.00646  	0.00000  	0.00000  
43.84078  	33.32364  	5.07683  	5.42158  	23.23943  	-1.18512  	0.02305  	0.53947  	0.52809  	-3.02442  	0.07229  	-0.08571  	-127.87748  	-1.70910  	155.85905  	159.21889  	-19411.74253  	-4211.61063  	0.00484  	0.00003  	0.00423  	0.00444  	0.00646  	0.00000  	0.00000  
44.84113  	33.32448  	5.07674  	5.42079  	23.24066  	-1.18512  	0.02342  	0.54123  	0.53016  	-3.02442  	0.07312  	-0.08567  	-127.87263  	-1.70561  	156.47016  	159.73690  	-19412.18989  	-4211.55801  	0.00485  	0.00003  	0.00423  	0.00445  	0.00647  	0.00000  	0.00000  
45.84345  	33.32449  	5.07614  	5.42028  	23.24407  	-1.18512  	0.02394  	0.54194  	0.52718  	-3.02442  	0.07413  	-0.08573  	-127.82948  	-1.70606  	155.58988  	159.94829  	-19412.92556  	-4211.49098  	0.00484  	0.00003  	0.00424  	0.00446  	0.00647  	0.00000  	0.00000  
46.84577  	33.32475  	5.07538  	5.42058  	23.24689  	-1.18512  	0.02374  	0.53985  	0.52981  	-3.02442  	0.07449  	-0.08569  	-127.79708  	-1.71129  	156.36687  	159.33193  	-19413.58892  	-4211.46348  	0.00485  	0.00003  	0.00424  	0.00446  	0.00646  	0.00000  	0.00000  
47.84709  	33.32562  	5.07632  	5.42075  	23.25016  	-1.18512  	0.02297  	0.54190  	0.52832  	-3.02442  	0.07185  	-0.08577  	-127.76667  	-1.70750  	155.92689  	159.93454  	-19414.48506  	-4211.52979  	0.00485  	0.00002  	0.00423  	0.00444  	0.00647  	0.00000  	0.00000  
48.85041  	33.32501  	5.07556  	5.42105  	23.25194  	-1.18512  	0.02361  	0.54201  	0.52973  	-3.02442  	0.07367  	-0.08574  	-127.73638  	-1.71272  	156.34407  	159.96908  	-19414.73759  	-4211.50253  	0.00485  	0.00003  	0.00424  	0.00445  	0.00647  	0.00000  	0.00000  
49.85372  	33.32707  	5.07544  	5.42057  	23.25592  	-1.18512  	0.02282  	0.54167  	0.53642  	-3.02442  	0.07318  	-0.08573  	-127.71186  	-1.71096  	158.31918  	159.86654  	-19416.03997  	-4211.46633  	0.00486  	0.00003  	0.00423  	0.00444  	0.00647  	0.00000  	0.00000  
50.85505  	33.32880  	5.07615  	5.42050  	23.25958  	-1.18512  	0.02295  	0.54081  	0.52845  	-3.02442  	0.07374  	-0.08567  	-127.68754  	-1.70708  	155.96526  	159.61507  	-19417.20200  	-4211.50525  	0.00485  	0.00003  	0.00424  	0.00444  	0.00647  	0.00000  	0.00000  
51.85836  	33.32936  	5.07555  	5.42077  	23.26244  	-1.18512  	0.02337  	0.53900  	0.52987  	-3.02442  	0.07348  	-0.08571  	-127.65823  	-1.71138  	156.38403  	159.08003  	-19417.94078  	-4211.48546  	0.00485  	0.00003  	0.00424  	0.00445  	0.00646  	0.00000  	0.00000  
52.85968  	33.32980  	5.07603  	5.42043  	23.26445  	-1.18512  	0.02438  	0.53919  	0.52881  	-3.02442  	0.07342  	-0.08573  	-127.63841  	-1.70733  	156.07278  	159.13623  	-19418.47146  	-4211.49358  	0.00485  	0.00003  	0.00423  	0.00447  	0.00646  	0.00000  	0.00000  
53.86101  	33.33034  	5.07551  	5.41978  	23.26688  	-1.18512  	0.02218  	0.53690  	0.52949  	-3.02442  	0.07345  	-0.08570  	-127.61442  	-1.70671  	156.27357  	158.45963  	-19419.11135  	-4211.42347  	0.00485  	0.00003  	0.00424  	0.00443  	0.00645  	0.00000  	0.00000  
54.86333  	33.33221  	5.07523  	5.41947  	23.26937  	-1.18512  	0.02339  	0.53714  	0.52902  	-3.02442  	0.07443  	-0.08567  	-127.60672  	-1.70652  	156.13384  	158.53165  	-19420.05094  	-4211.38788  	0.00485  	0.00003  	0.00424  	0.00445  	0.00645  	0.00000  	0.00000  
55.86664  	33.33056  	5.07548  	5.41967  	23.26922  	-1.18512  	0.02337  	0.53665  	0.52207  	-3.02442  	0.07287  	-0.08571  	-127.58758  	-1.70630  	154.08257  	158.38681  	-19419.66474  	-4211.41556  	0.00484  	0.00003  	0.00423  	0.00445  	0.00645  	0.00000  	0.00000  
56.86796  	33.33113  	5.07534  	5.41977  	23.27053  	-1.18512  	0.02249  	0.53479  	0.52300  	-3.02442  	0.07283  	-0.08569  	-127.57826  	-1.70750  	154.35846  	157.83633  	-19420.06968  	-4211.41302  	0.00484  	0.00003  	0.00423  	0.00443  	0.00644  	0.00000  	0.00000  
57.87128  	33.33184  	5.07528  	5.42052  	23.27149  	-1.18512  	0.02384  	0.53399  	0.52272  	-3.02442  	0.07165  	-0.08571  	-127.57506  	-1.71150  	154.27560  	157.60179  	-19420.43029  	-4211.45453  	0.00484  	0.00003  	0.00423  	0.00446  	0.00644  	0.00000  	0.00000  
58.87459  	33.33249  	5.07579  	5.42065  	23.27137  	-1.18512  	0.02292  	0.53309  	0.52346  	-3.02442  	0.07424  	-0.08571  	-127.58470  	-1.70962  	154.49338  	157.33528  	-19420.54303  	-4211.49285  	0.00484  	0.00003  	0.00424  	0.00444  	0.00643  	0.00000  	0.00000  
59.87591  	33.33248  	5.07588  	5.42102  	23.27089  	-1.18512  	0.02234  	0.53096  	0.52004  	-3.02442  	0.07284  	-0.08574  	-127.59079  	-1.71099  	153.48473  	156.70816  	-19420.43714  	-4211.51982  	0.00483  	0.00003  	0.00423  	0.00443  	0.00642  	0.00000  	0.00000  
60.87923  	33.33417  	5.07547  	5.42223  	23.26993  	-1.18512  	0.02269  	0.52926  	0.52131  	-3.02442  	0.07229  	-0.08572  	-127.62426  	-1.71905  	153.85909  	156.20636  	-19420.59507  	-4211.56764  	0.00483  	0.00003  	0.00423  	0.00444  	0.00641  	0.00000  	0.00000  
61.88155  	33.33389  	5.07472  	5.42121  	23.26788  	-1.18512  	0.02488  	0.52908  	0.51705  	-3.02442  	0.07469  	-0.08572  	-127.64682  	-1.71771  	152.60039  	156.15083  	-19420.09217  	-4211.46178  	0.00483  	0.00003  	0.00424  	0.00448  	0.00641  	0.00000  	0.00000  
62.88287  	33.33200  	5.07550  	5.42132  	23.26629  	-1.18512  	0.02258  	0.52542  	0.51565  	-3.02442  	0.07372  	-0.08565  	-127.64304  	-1.71438  	152.18776  	155.07209  	-19419.34076  	-4211.51526  	0.00483  	0.00003  	0.00424  	0.00443  	0.00640  	0.00000  	0.00000  
63.88519  	33.33221  	5.07569  	5.42200  	23.26324  	-1.18512  	0.02256  	0.52532  	0.51549  	-3.02442  	0.07439  	-0.08575  	-127.68427  	-1.71681  	152.14005  	155.04109  	-19418.72987  	-4211.56756  	0.00482  	0.00002  	0.00424  	0.00443  	0.00640  	0.00000  	0.00000  
64.88751  	33.33570  	5.07630  	5.42083  	23.25953  	-1.18512  	0.02136  	0.52642  	0.51365  	-3.02442  	0.07264  	-0.08573  	-127.77560  	-1.70799  	151.59711  	155.36662  	-19418.67989  	-4211.53431  	0.00482  	0.00003  	0.00423  	0.00441  	0.00640  	0.00000  	0.00000  
65.89082  	33.33449  	5.07612  	5.42066  	23.25602  	-1.18512  	0.02222  	0.52780  	0.51869  	-3.02442  	0.07475  	-0.08568  	-127.80484  	-1.70799  	153.08531  	155.77355  	-19417.66358  	-4211.51282  	0.00483  	0.00003  	0.00424  	0.00443  	0.00641  	0.00000  	0.00000  
66.89215  	33.33492  	5.07600  	5.42071  	23.25270  	-1.18512  	0.02337  	0.53008  	0.52188  	-3.02442  	0.07279  	-0.08571  	-127.85232  	-1.70889  	154.02828  	156.44786  	-19417.03889  	-4211.50877  	0.00484  	0.00003  	0.00423  	0.00445  	0.00642  	0.00000  	0.00000  
67.89546  	33.33415  	5.07472  	5.42072  	23.25029  	-1.18512  	0.02258  	0.53266  	0.52002  	-3.02442  	0.07259  	-0.08567  	-127.87315  	-1.71525  	153.47939  	157.20744  	-19416.35413  	-4211.43220  	0.00483  	0.00003  	0.00423  	0.00443  	0.00643  	0.00000  	0.00000  
68.89878  	33.33384  	5.07520  	5.42151  	23.24758  	-1.18512  	0.02391  	0.53346  	0.52573  	-3.02442  	0.07315  	-0.08574  	-127.90355  	-1.71679  	155.16263  	157.44600  	-19415.70276  	-4211.50859  	0.00484  	0.00003  	0.00423  	0.00446  	0.00643  	0.00000  	0.00000  
69.90010  	33.33450  	5.07512  	5.42021  	23.24602  	-1.18512  	0.02298  	0.53465  	0.52530  	-3.02442  	0.07423  	-0.08572  	-127.93168  	-1.71078  	155.03768  	157.79514  	-19415.50754  	-4211.42592  	0.00484  	0.00003  	0.00424  	0.00444  	0.00644  	0.00000  	0.00000  
70.90242  	33.33552  	5.07431  	5.41956  	23.24497  	-1.18512  	0.02388  	0.53505  	0.52607  	-3.02442  	0.07438  	-0.08566  	-127.95804  	-1.71158  	155.26412  	157.91397  	-19415.50099  	-4211.33859  	0.00484  	0.00003  	0.00424  	0.00446  	0.00644  	0.00000  	0.00000  
71.90574  	33.33922  	5.07436  	5.42062  	23.24436  	-1.18512  	0.02374  	0.53644  	0.52845  	-3.02442  	0.07173  	-0.08570  	-128.01265  	-1.71657  	155.96645  	158.32297  	-19416.16808  	-4211.40484  	0.00485  	0.00003  	0.00423  	0.00446  	0.00645  	0.00000  	0.00000  
72.90706  	33.33818  	5.07502  	5.41987  	23.24413  	-1.18512  	0.02370  	0.53758  	0.52890  	-3.02442  	0.07332  	-0.08574  	-128.00245  	-1.70954  	156.09833  	158.66027  	-19415.89269  	-4211.39960  	0.00485  	0.00002  	0.00423  	0.00446  	0.00645  	0.00000  	0.00000  
73.91037  	33.33876  	5.07446  	5.41982  	23.24554  	-1.18512  	0.02360  	0.53806  	0.53016  	-3.02442  	0.07231  	-0.08571  	-127.99198  	-1.71211  	156.47216  	158.80256  	-19416.32218  	-4211.36250  	0.00485  	0.00003  	0.00423  	0.00445  	0.00645  	0.00000  	0.00000  
74.91269  	33.34089  	5.07403  	5.42023  	23.24698  	-1.18512  	0.02408  	0.53951  	0.53120  	-3.02442  	0.07266  	-0.08573  	-128.00072  	-1.71628  	156.77891  	159.23144  	-19417.09255  	-4211.36131  	0.00485  	0.00003  	0.00423  	0.00446  	0.00646  	0.00000  	0.00000  
75.91401  	33.33919  	5.07323  	5.42030  	23.24939  	-1.18512  	0.02459  	0.53921  	0.52763  	-3.02442  	0.07215  	-0.08573  	-127.94856  	-1.72056  	155.72518  	159.14096  	-19417.24738  	-4211.31763  	0.00484  	0.00003  	0.00423  	0.00447  	0.00646  	0.00000  	0.00000  
76.91730  	33.33988  	5.07384  	5.41952  	23.25110  	-1.18512  	0.02390  	0.53944  	0.53206  	-3.02442  	0.07547  	-0.08568  	-127.93564  	-1.71366  	157.03135  	159.20971  	-19417.76243  	-4211.30787  	0.00485  	0.00003  	0.00424  	0.00446  	0.00646  	0.00000  	0.00000  
77.91964  	33.34091  	5.07429  	5.42000  	23.25375  	-1.18512  	0.02291  	0.54091  	0.53126  	-3.02442  	0.07230  	-0.08569  	-127.91503  	-1.71384  	156.79668  	159.64253  	-19418.55960  	-4211.36387  	0.00485  	0.00003  	0.00423  	0.00444  	0.00647  	0.00000  	0.00000  
78.92096  	33.34237  	5.07433  	5.42044  	23.25641  	-1.18512  	0.02315  	0.54093  	0.53079  	-3.02442  	0.07318  	-0.08573  	-127.89979  	-1.71582  	156.65802  	159.65038  	-19419.44829  	-4211.39256  	0.00485  	0.00003  	0.00423  	0.00444  	0.00647  	0.00000  	0.00000  
79.92426  	33.34369  	5.07392  	5.41950  	23.25932  	-1.18512  	0.02287  	0.54113  	0.53155  	-3.02442  	0.07190  	-0.08579  	-127.87967  	-1.71322  	156.88040  	159.70889  	-19420.36107  	-4211.31104  	0.00485  	0.00002  	0.00423  	0.00444  	0.00647  	0.00000  	0.00000  
80.92757  	33.34399  	5.07457  	5.42000  	23.26154  	-1.18512  	0.02455  	0.54156  	0.53013  	-3.02442  	0.07426  	-0.08572  	-127.85530  	-1.71246  	156.46268  	159.83459  	-19420.90343  	-4211.38025  	0.00485  	0.00003  	0.00424  	0.00447  	0.00647  	0.00000  	0.00000  
81.92892  	33.34371  	5.07427  	5.42044  	23.26483  	-1.18512  	0.02400  	0.54231  	0.53264  	-3.02442  	0.07434  	-0.08576  	-127.81004  	-1.71615  	157.20356  	160.05812  	-19421.55262  	-4211.38875  	0.00485  	0.00002  	0.00424  	0.00446  	0.00647  	0.00000  	0.00000  
82.93223  	33.34414  	5.07425  	5.42061  	23.26789  	-1.18512  	0.02373  	0.54138  	0.53128  	-3.02442  	0.07096  	-0.08571  	-127.77668  	-1.71707  	156.80050  	159.78216  	-19422.30603  	-4211.39743  	0.00485  	0.00003  	0.00423  	0.00446  	0.00647  	0.00000  	0.00000  
83.93555  	33.34642  	5.07334  	5.42008  	23.27098  	-1.18512  	0.02356  	0.53982  	0.53073  	-3.02442  	0.07100  	-0.08571  	-127.76644  	-1.71894  	156.63917  	159.32329  	-19423.46704  	-4211.31174  	0.00485  	0.00003  	0.00423  	0.00445  	0.00646  	0.00000  	0.00000  
84.93687  	33.34689  	5.07491  	5.42014  	23.27282  	-1.18512  	0.02411  	0.53961  	0.52875  	-3.02442  	0.07404  	-0.08575  	-127.74905  	-1.71147  	156.05418  	159.26005  	-19423.96475  	-4211.40917  	0.00485  	0.00002  	0.00424  	0.00446  	0.00646  	0.00000  	0.00000  
85.93919  	33.34762  	5.07581  	5.42115  	23.27549  	-1.18512  	0.02322  	0.53772  	0.53057  	-3.02442  	0.07411  	-0.08571  	-127.72441  	-1.71196  	156.59217  	158.70181  	-19424.69854  	-4211.52361  	0.00485  	0.00003  	0.00424  	0.00445  	0.00645  	0.00000  	0.00000  
86.94151  	33.34708  	5.07561  	5.42083  	23.27740  	-1.18512  	0.02350  	0.53804  	0.52867  	-3.02442  	0.07438  	-0.08568  	-127.69324  	-1.71140  	156.02979  	158.79685  	-19424.99366  	-4211.49243  	0.00485  	0.00003  	0.00424  	0.00445  	0.00645  	0.00000  	0.00000  
87.94480  	33.34954  	5.07530  	5.41966  	23.27967  	-1.18512  	0.02275  	0.53721  	0.52727  	-3.02442  	0.07348  	-0.08573  	-127.69575  	-1.70712  	155.61934  	158.55052  	-19426.01401  	-4211.40395  	0.00484  	0.00003  	0.00424  	0.00444  	0.00645  	0.00000  	0.00000  
88.94615  	33.34764  	5.07578  	5.42069  	23.28034  	-1.18512  	0.02367  	0.53529  	0.52600  	-3.02442  	0.07346  	-0.08574  	-127.66310  	-1.70986  	155.24291  	157.98582  	-19425.74843  	-4211.49462  	0.00484  	0.00003  	0.00424  	0.00445  	0.00644  	0.00000  	0.00000  
89.94792  	33.34652  	5.07561  	5.42091  	23.28182  	-1.18512  	0.02315  	0.53549  	0.52627  	-3.02442  	0.07386  	-0.08568  	-127.63017  	-1.71179  	155.32226  	158.04511  	-19425.82578  	-4211.49754  	0.00484  	0.00003  	0.00424  	0.00444  	0.00644  	0.00000  	0.00000  
90.95122  	33.34821  	5.07632  	5.42170  	23.28153  	-1.18512  	0.02259  	0.53506  	0.52394  	-3.02442  	0.07274  	-0.08571  	-127.65525  	-1.71221  	154.63447  	157.91602  	-19426.12935  	-4211.58758  	0.00484  	0.00003  	0.00423  	0.00443  	0.00644  	0.00000  	0.00000  
91.95456  	33.34872  	5.07527  	5.42165  	23.28099  	-1.18512  	0.02262  	0.53275  	0.52349  	-3.02442  	0.07296  	-0.08569  	-127.66859  	-1.71714  	154.50223  	157.23547  	-19426.12416  	-4211.52139  	0.00484  	0.00003  	0.00423  	0.00443  	0.00643  	0.00000  	0.00000  
92.95588  	33.34831  	5.07594  	5.42230  	23.28182  	-1.18512  	0.02284  	0.53187  	0.52235  	-3.02442  	0.07370  	-0.08576  	-127.65289  	-1.71707  	154.16516  	156.97571  	-19426.21258  	-4211.60020  	0.00484  	0.00002  	0.00424  	0.00444  	0.00643  	0.00000  	0.00000  
93.95721  	33.34894  	5.07557  	5.42157  	23.28040  	-1.18512  	0.02387  	0.53118  	0.51863  	-3.02442  	0.07398  	-0.08573  	-127.67888  	-1.71527  	153.06735  	156.77136  	-19426.04421  	-4211.53493  	0.00483  	0.00003  	0.00424  	0.00446  	0.00642  	0.00000  	0.00000  
94.96053  	33.34858  	5.07527  	5.42053  	23.28036  	-1.18512  	0.02456  	0.52877  	0.51993  	-3.02442  	0.07335  	-0.08578  	-127.67488  	-1.71162  	153.45070  	156.06157  	-19425.95519  	-4211.45382  	0.00483  	0.00002  	0.00423  	0.00447  	0.00641  	0.00000  	0.00000  
95.96383  	33.34954  	5.07543  	5.42021  	23.27820  	-1.18512  	0.02337  	0.52703  	0.51717  	-3.02442  	0.07427  	-0.08575  	-127.71444  	-1.70920  	152.63632  	155.54580  	-19425.69823  	-4211.44433  	0.00483  	0.00002  	0.00424  	0.00445  	0.00640  	0.00000  	0.00000  
96.96516  	33.35013  	5.07653  	5.42022  	23.27481  	-1.18512  	0.02342  	0.52487  	0.51263  	-3.02442  	0.07252  	-0.08568  	-127.76481  	-1.70385  	151.29717  	154.90909  	-19425.09410  	-4211.51083  	0.00482  	0.00003  	0.00423  	0.00445  	0.00639  	0.00000  	0.00000  
97.96847  	33.35043  	5.07633  	5.42015  	23.27148  	-1.18512  	0.02348  	0.52254  	0.51281  	-3.02442  	0.07339  	-0.08567  	-127.81099  	-1.70447  	151.34871  	154.22115  	-19424.43923  	-4211.49450  	0.00482  	0.00003  	0.00423  	0.00445  	0.00638  	0.00000  	0.00000  
98.97176  	33.34950  	5.07613  	5.41972  	23.26783  	-1.18512  	0.02303  	0.52550  	0.51277  	-3.02442  	0.07351  	-0.08572  	-127.84543  	-1.70329  	151.33980  	155.09573  	-19423.45017  	-4211.45698  	0.00482  	0.00003  	0.00424  	0.00444  	0.00640  	0.00000  	0.00000  
99.97311  	33.34943  	5.07620  	5.41851  	23.26401  	-1.18512  	0.02311  	0.52809  	0.51761  	-3.02442  	0.07204  	-0.08576  	-127.89298  	-1.69699  	152.76634  	155.85981  	-19422.61077  	-4211.38897  	0.00483  	0.00002  	0.00423  	0.00444  	0.00641  	0.00000  	0.00000  
100.97543  	33.35007  	5.07605  	5.41792  	23.25965  	-1.18512  	0.02395  	0.53112  	0.51822  	-3.02442  	0.07362  	-0.08576  	-127.95635  	-1.69481  	152.94687  	156.75282  	-19421.80829  	-4211.34466  	0.00483  	0.00002  	0.00424  	0.00446  	0.00642  	0.00000  	0.00000  
101.97874  	33.35064  	5.07511  	5.41750  	23.25614  	-1.18512  	0.02357  	0.53134  	0.52237  	-3.02442  	0.07407  	-0.08563  	-128.00821  	-1.69740  	154.17162  	156.81839  	-19421.17450  	-4211.26245  	0.00484  	0.00003  	0.00424  	0.00445  	0.00642  	0.00000  	0.00000  
102.98004  	33.35350  	5.07507  	5.41772  	23.25263  	-1.18512  	0.02196  	0.53321  	0.52723  	-3.02442  	0.07347  	-0.08568  	-128.08889  	-1.69867  	155.60545  	157.37079  	-19421.03304  	-4211.27352  	0.00484  	0.00003  	0.00424  	0.00442  	0.00643  	0.00000  	0.00000  
103.98338  	33.35318  	5.07476  	5.41631  	23.25071  	-1.18512  	0.02346  	0.53387  	0.52796  	-3.02442  	0.07368  	-0.08576  	-128.10926  	-1.69320  	155.82131  	157.56602  	-19420.55104  	-4211.17055  	0.00484  	0.00002  	0.00424  	0.00445  	0.00643  	0.00000  	0.00000  
104.98670  	33.35385  	5.07496  	5.41720  	23.25038  	-1.18512  	0.02270  	0.53496  	0.52203  	-3.02442  	0.07342  	-0.08574  	-128.12192  	-1.69668  	154.07097  	157.88719  	-19420.62207  	-4211.23572  	0.00484  	0.00003  	0.00423  	0.00444  	0.00644  	0.00000  	0.00000  
105.98802  	33.35451  	5.07527  	5.41769  	23.24982  	-1.18512  	0.02178  	0.53567  	0.52469  	-3.02442  	0.07241  	-0.08574  	-128.13732  	-1.69755  	154.85588  	158.09692  	-19420.64548  	-4211.28349  	0.00484  	0.00003  	0.00423  	0.00442  	0.00644  	0.00000  	0.00000  
106.99034  	33.35641  	5.07516  	5.41929  	23.24889  	-1.18512  	0.02299  	0.53674  	0.52641  	-3.02442  	0.07353  	-0.08573  	-128.17329  	-1.70597  	155.36377  	158.41148  	-19420.85379  	-4211.37287  	0.00484  	0.00003  	0.00424  	0.00444  	0.00645  	0.00000  	0.00000  
