10/18/2024 15:59:19Time	T_hot_in(C)	T_cold_in(C)	T_cold_out(C)	T_hot_out(C)	mdot_cold(kg/s)	ASFASIFUAS(kg/s)	Diferencial_cold(bar)	Diferencial_hot(bar)	mdot_hot(kg/s)	ABS_cold(bar)	ABS_hot(bar)	q_cold(kW)	q_hot(kW)	ASFASYFY	Tau_cold_haste	Re_hot	Re_cold	U_global	PSIG_cold(bar)	R_fouling	PSIG_hot(bar)	PSID_hot(bar)	m_dot_hot	PSID_cold(bar)	m_dot_cold
1.75134  	0.00000  	0.00000  	0.00000  	0.00000  	-1.18512  	-0.20833  	-0.86278  	-2.50000  	-3.02442  	-1.25000  	-0.08628  	-0.00000  	-0.00000  	-737.84722  	-254.63905  	-9234.48090  	-3618.55272  	0.00000  	0.00000  	0.00000  	0.00000  	0.00000  	0.00000  	0.00000  
2.75466  	29.63853  	49.85888  	49.66783  	34.51131  	-1.18512  	0.03347  	0.82195  	0.82825  	-3.02442  	0.06299  	-0.08568  	-61.62262  	-0.94706  	244.44746  	242.59034  	-21070.18558  	-11441.40802  	0.00533  	0.00003  	0.00420  	0.00464  	0.00776  	0.00000  	0.00000  
3.75595  	29.64049  	49.86008  	49.67002  	34.52458  	-1.18512  	0.03363  	0.82524  	0.83039  	-3.02442  	0.06019  	-0.08572  	-61.76565  	-0.94221  	245.08018  	243.56068  	-21073.55485  	-11441.72467  	0.00533  	0.00003  	0.00419  	0.00465  	0.00778  	0.00000  	0.00000  
4.75930  	29.64267  	49.86129  	49.67081  	34.53826  	-1.18512  	0.03347  	0.82934  	0.83554  	-3.02442  	0.06260  	-0.08576  	-61.91108  	-0.94424  	246.60066  	244.77020  	-21077.06359  	-11441.91188  	0.00534  	0.00002  	0.00420  	0.00464  	0.00780  	0.00000  	0.00000  
5.76162  	29.64471  	49.86183  	49.67143  	34.54799  	-1.18512  	0.03517  	0.83491  	0.83984  	-3.02442  	0.06352  	-0.08572  	-62.00837  	-0.94382  	247.86898  	246.41562  	-21079.66568  	-11442.02000  	0.00534  	0.00003  	0.00420  	0.00468  	0.00782  	0.00000  	0.00000  
6.76291  	29.64674  	49.86322  	49.67211  	34.55659  	-1.18512  	0.03225  	0.83817  	0.84768  	-3.02442  	0.06348  	-0.08566  	-62.09141  	-0.94736  	250.18204  	247.37550  	-21082.01793  	-11442.21340  	0.00536  	0.00003  	0.00420  	0.00462  	0.00784  	0.00000  	0.00000  
7.76622  	29.64939  	49.86486  	49.67381  	34.56345  	-1.18512  	0.03487  	0.84197  	0.84654  	-3.02442  	0.06153  	-0.08563  	-62.14470  	-0.94711  	249.84554  	248.49904  	-21084.12123  	-11442.52474  	0.00535  	0.00003  	0.00420  	0.00467  	0.00785  	0.00000  	0.00000  
8.76954  	29.65098  	49.86606  	49.67506  	34.56944  	-1.18512  	0.03517  	0.84559  	0.84865  	-3.02442  	0.06314  	-0.08569  	-62.20035  	-0.94682  	250.47109  	249.56693  	-21085.79954  	-11442.75326  	0.00536  	0.00003  	0.00420  	0.00468  	0.00787  	0.00000  	0.00000  
9.77086  	29.65301  	49.86728  	49.67689  	34.57274  	-1.18512  	0.03355  	0.84828  	0.85237  	-3.02442  	0.06051  	-0.08572  	-62.21639  	-0.94382  	251.56831  	250.36015  	-21086.97786  	-11443.03863  	0.00536  	0.00003  	0.00419  	0.00464  	0.00788  	0.00000  	0.00000  
10.77418  	29.65521  	49.86875  	49.67839  	34.57570  	-1.18512  	0.03377  	0.85180  	0.85837  	-3.02442  	0.05983  	-0.08562  	-62.22602  	-0.94366  	253.33711  	251.40074  	-21088.12047  	-11443.31507  	0.00537  	0.00003  	0.00419  	0.00465  	0.00790  	0.00000  	0.00000  
11.77752  	29.65682  	49.86952  	49.67944  	34.57722  	-1.18512  	0.03393  	0.85498  	0.86248  	-3.02442  	0.06301  	-0.08569  	-62.22490  	-0.94228  	254.55241  	252.33890  	-21088.81015  	-11443.48635  	0.00538  	0.00003  	0.00420  	0.00465  	0.00791  	0.00000  	0.00000  
12.77882  	29.65772  	49.87126  	49.67991  	34.57577  	-1.18512  	0.03252  	0.85829  	0.86458  	-3.02442  	0.06046  	-0.08565  	-62.19512  	-0.94860  	255.17134  	253.31391  	-21088.68871  	-11443.69160  	0.00538  	0.00003  	0.00419  	0.00462  	0.00793  	0.00000  	0.00000  
13.78213  	29.65992  	49.87179  	49.68043  	34.57343  	-1.18512  	0.03262  	0.86068  	0.86829  	-3.02442  	0.06075  	-0.08566  	-62.13785  	-0.94860  	256.26761  	254.02099  	-21088.65849  	-11443.79040  	0.00539  	0.00003  	0.00419  	0.00463  	0.00794  	0.00000  	0.00000  
14.78545  	29.66140  	49.87341  	49.68163  	34.57110  	-1.18512  	0.03351  	0.86511  	0.87042  	-3.02442  	0.06038  	-0.08575  	-62.08956  	-0.95072  	256.89490  	255.32634  	-21088.47210  	-11444.05372  	0.00539  	0.00002  	0.00419  	0.00464  	0.00796  	0.00000  	0.00000  
15.78677  	29.66243  	49.87473  	49.68227  	34.56867  	-1.18512  	0.03306  	0.86725  	0.87122  	-3.02442  	0.06109  	-0.08568  	-62.04581  	-0.95409  	257.13071  	255.96052  	-21088.16145  	-11444.23604  	0.00539  	0.00003  	0.00420  	0.00463  	0.00797  	0.00000  	0.00000  
16.79012  	29.66339  	49.87640  	49.68360  	34.56331  	-1.18512  	0.03374  	0.86950  	0.87448  	-3.02442  	0.06191  	-0.08567  	-61.96591  	-0.95576  	258.09247  	256.62319  	-21087.18864  	-11444.51609  	0.00540  	0.00003  	0.00420  	0.00465  	0.00798  	0.00000  	0.00000  
17.79340  	29.66376  	49.87707  	49.68470  	34.55854  	-1.18512  	0.03415  	0.87202  	0.87803  	-3.02442  	0.05991  	-0.08567  	-61.90091  	-0.95358  	259.14068  	257.36823  	-21086.21527  	-11444.68169  	0.00540  	0.00003  	0.00419  	0.00466  	0.00799  	0.00000  	0.00000  
18.79672  	29.66402  	49.87817  	49.68526  	34.55248  	-1.18512  	0.03477  	0.87407  	0.87838  	-3.02442  	0.06121  	-0.08567  	-61.82088  	-0.95627  	259.24409  	257.97080  	-21084.93104  	-11444.83667  	0.00541  	0.00003  	0.00420  	0.00467  	0.00800  	0.00000  	0.00000  
19.79804  	29.66574  	49.87980  	49.68679  	34.54699  	-1.18512  	0.03541  	0.87628  	0.88344  	-3.02442  	0.06104  	-0.08568  	-61.72982  	-0.95677  	260.73634  	258.62551  	-21084.09577  	-11445.13126  	0.00541  	0.00003  	0.00420  	0.00468  	0.00801  	0.00000  	0.00000  
20.80135  	29.66606  	49.88046  	49.68871  	34.53996  	-1.18512  	0.03384  	0.87764  	0.88782  	-3.02442  	0.06145  	-0.08569  	-61.63682  	-0.95055  	262.03050  	259.02571  	-21082.61133  	-11445.37170  	0.00542  	0.00003  	0.00420  	0.00465  	0.00802  	0.00000  	0.00000  
21.80467  	29.66685  	49.88179  	49.68919  	34.53368  	-1.18512  	0.03474  	0.88045  	0.88766  	-3.02442  	0.05998  	-0.08573  	-61.54742  	-0.95477  	261.98155  	259.85613  	-21081.39742  	-11445.54171  	0.00542  	0.00003  	0.00419  	0.00467  	0.00803  	0.00000  	0.00000  
22.80599  	29.66807  	49.88327  	49.68959  	34.52706  	-1.18512  	0.03293  	0.88241  	0.89119  	-3.02442  	0.06099  	-0.08567  	-61.44827  	-0.96010  	263.02534  	260.43488  	-21080.20244  	-11445.71686  	0.00543  	0.00003  	0.00420  	0.00463  	0.00804  	0.00000  	0.00000  
23.80931  	29.66817  	49.88388  	49.69070  	34.52037  	-1.18512  	0.03372  	0.88455  	0.89054  	-3.02442  	0.06215  	-0.08569  	-61.36242  	-0.95762  	262.83156  	261.06367  	-21078.74620  	-11445.87737  	0.00542  	0.00003  	0.00420  	0.00465  	0.00805  	0.00000  	0.00000  
24.81262  	29.66976  	49.88565  	49.69233  	34.51350  	-1.18512  	0.03364  	0.88562  	0.89314  	-3.02442  	0.06213  	-0.08574  	-61.25541  	-0.95833  	263.60168  	261.38104  	-21077.57825  	-11446.19556  	0.00543  	0.00003  	0.00420  	0.00465  	0.00806  	0.00000  	0.00000  
25.81395  	29.67008  	49.88645  	49.69324  	34.50673  	-1.18512  	0.03412  	0.88678  	0.89326  	-3.02442  	0.06162  	-0.08571  	-61.16580  	-0.95781  	263.63520  	261.72432  	-21076.15268  	-11446.35481  	0.00543  	0.00003  	0.00420  	0.00466  	0.00806  	0.00000  	0.00000  
26.81726  	29.66982  	49.88768  	49.69447  	34.49981  	-1.18512  	0.03302  	0.88598  	0.89335  	-3.02442  	0.06137  	-0.08560  	-61.08149  	-0.95781  	263.66366  	261.48750  	-21074.56250  	-11446.58413  	0.00543  	0.00003  	0.00420  	0.00463  	0.00806  	0.00000  	0.00000  
27.82058  	29.67060  	49.88806  	49.69441  	34.49174  	-1.18512  	0.03350  	0.88757  	0.89507  	-3.02442  	0.06192  	-0.08573  	-60.96963  	-0.95996  	264.16907  	261.95557  	-21072.95041  	-11446.61450  	0.00543  	0.00003  	0.00420  	0.00464  	0.00806  	0.00000  	0.00000  
28.82190  	29.67156  	49.88875  	49.69621  	34.48529  	-1.18512  	0.03422  	0.88834  	0.89577  	-3.02442  	0.06083  	-0.08564  	-60.87592  	-0.95450  	264.37547  	262.18455  	-21071.73488  	-11446.84684  	0.00543  	0.00003  	0.00419  	0.00466  	0.00807  	0.00000  	0.00000  
29.82524  	29.67162  	49.88931  	49.69702  	34.47927  	-1.18512  	0.03429  	0.88193  	0.89591  	-3.02442  	0.06212  	-0.08575  	-60.79911  	-0.95325  	264.41873  	260.29140  	-21070.41815  	-11446.97451  	0.00543  	0.00002  	0.00420  	0.00466  	0.00804  	0.00000  	0.00000  
30.82853  	29.67097  	49.89055  	49.69595  	34.47397  	-1.18512  	0.03469  	0.87675  	0.88634  	-3.02442  	0.06063  	-0.08563  	-60.74022  	-0.96467  	261.59198  	258.76359  	-21069.10242  	-11446.99102  	0.00542  	0.00003  	0.00419  	0.00467  	0.00801  	0.00000  	0.00000  
31.82985  	29.67156  	49.89183  	49.69708  	34.46745  	-1.18512  	0.03470  	0.86981  	0.87155  	-3.02442  	0.06253  	-0.08566  	-60.65035  	-0.96545  	257.22913  	256.71363  	-21067.79012  	-11447.21608  	0.00539  	0.00003  	0.00420  	0.00467  	0.00798  	0.00000  	0.00000  
32.83320  	29.66925  	49.89279  	49.69906  	34.46378  	-1.18512  	0.03426  	0.86225  	0.87124  	-3.02442  	0.06341  	-0.08566  	-60.63306  	-0.96039  	257.13826  	254.48322  	-21066.46847  	-11447.49018  	0.00539  	0.00003  	0.00420  	0.00466  	0.00795  	0.00000  	0.00000  
33.83552  	29.66884  	49.89368  	49.69979  	34.46187  	-1.18512  	0.03330  	0.85444  	0.86181  	-3.02442  	0.06193  	-0.08567  	-60.61412  	-0.96117  	254.35483  	252.17987  	-21065.95580  	-11447.64180  	0.00538  	0.00003  	0.00420  	0.00464  	0.00791  	0.00000  	0.00000  
34.83584  	29.66681  	49.89478  	49.69937  	34.46184  	-1.18512  	0.03452  	0.84524  	0.85298  	-3.02442  	0.06187  	-0.08568  	-60.63941  	-0.96868  	251.74629  	249.46454  	-21065.49830  	-11447.70560  	0.00536  	0.00003  	0.00420  	0.00466  	0.00787  	0.00000  	0.00000  
35.83916  	29.66591  	49.89560  	49.70102  	34.46335  	-1.18512  	0.03469  	0.83780  	0.83831  	-3.02442  	0.05992  	-0.08566  	-60.66981  	-0.96458  	247.41857  	247.26853  	-21065.63391  	-11447.93474  	0.00534  	0.00003  	0.00419  	0.00467  	0.00784  	0.00000  	0.00000  
36.84247  	29.66391  	49.89626  	49.70265  	34.46777  	-1.18512  	0.03227  	0.82989  	0.83236  	-3.02442  	0.06027  	-0.08571  	-60.75114  	-0.95973  	245.66313  	244.93307  	-21066.16909  	-11448.14934  	0.00533  	0.00003  	0.00419  	0.00462  	0.00780  	0.00000  	0.00000  
37.84277  	29.66284  	49.89722  	49.70329  	34.47409  	-1.18512  	0.03245  	0.82134  	0.82402  	-3.02442  	0.06115  	-0.08570  	-60.84449  	-0.96134  	243.20126  	242.40879  	-21067.33137  	-11448.29844  	0.00532  	0.00003  	0.00420  	0.00462  	0.00776  	0.00000  	0.00000  
38.84611  	29.66060  	49.89789  	49.70499  	34.48270  	-1.18512  	0.03240  	0.81370  	0.81267  	-3.02442  	0.06230  	-0.08571  	-60.98173  	-0.95627  	239.85068  	240.15470  	-21068.73996  	-11448.51980  	0.00530  	0.00003  	0.00420  	0.00462  	0.00772  	0.00000  	0.00000  
39.84940  	29.66010  	49.89839  	49.70652  	34.49470  	-1.18512  	0.03242  	0.80518  	0.80329  	-3.02442  	0.06145  	-0.08569  	-61.13991  	-0.95113  	237.08118  	237.64009  	-21071.28200  	-11448.70960  	0.00529  	0.00003  	0.00420  	0.00462  	0.00768  	0.00000  	0.00000  
40.85272  	29.65918  	49.89916  	49.70823  	34.50666  	-1.18512  	0.03172  	0.80689  	0.80592  	-3.02442  	0.06198  	-0.08569  	-61.30278  	-0.94652  	237.85913  	238.14354  	-21073.72511  	-11448.94099  	0.00529  	0.00003  	0.00420  	0.00461  	0.00769  	0.00000  	0.00000  
41.85404  	29.65843  	49.90058  	49.70923  	34.52107  	-1.18512  	0.03307  	0.81148  	0.81410  	-3.02442  	0.06218  	-0.08572  	-61.49452  	-0.94854  	240.27148  	239.49898  	-21076.74602  	-11449.16704  	0.00530  	0.00003  	0.00420  	0.00463  	0.00771  	0.00000  	0.00000  
42.85738  	29.65951  	49.90075  	49.70952  	34.53691  	-1.18512  	0.03203  	0.81556  	0.81939  	-3.02442  	0.06179  	-0.08565  	-61.68101  	-0.94798  	241.83386  	240.70325  	-21080.48940  	-11449.20986  	0.00531  	0.00003  	0.00420  	0.00462  	0.00773  	0.00000  	0.00000  
43.85970  	29.66066  	49.90215  	49.70991  	34.55183  	-1.18512  	0.03236  	0.82022  	0.82589  	-3.02442  	0.06114  	-0.08568  	-61.85513  	-0.95296  	243.75342  	242.07768  	-21084.04425  	-11449.37775  	0.00532  	0.00003  	0.00420  	0.00462  	0.00775  	0.00000  	0.00000  
44.86102  	29.66202  	49.90290  	49.71162  	34.56475  	-1.18512  	0.03316  	0.82481  	0.83008  	-3.02442  	0.06061  	-0.08577  	-62.00144  	-0.94824  	244.98755  	243.43280  	-21087.20386  	-11449.60667  	0.00533  	0.00002  	0.00419  	0.00464  	0.00778  	0.00000  	0.00000  
45.86434  	29.66387  	49.90423  	49.71210  	34.57710  	-1.18512  	0.03367  	0.82877  	0.83103  	-3.02442  	0.06327  	-0.08572  	-62.13419  	-0.95243  	245.27063  	244.60102  	-21090.34421  	-11449.77684  	0.00533  	0.00003  	0.00420  	0.00465  	0.00779  	0.00000  	0.00000  
46.86763  	29.66596  	49.90445  	49.71318  	34.58734  	-1.18512  	0.03232  	0.83374  	0.83852  	-3.02442  	0.05936  	-0.08565  	-62.23737  	-0.94815  	247.47951  	246.06940  	-21093.07331  	-11449.89733  	0.00534  	0.00003  	0.00419  	0.00462  	0.00782  	0.00000  	0.00000  
47.86898  	29.66833  	49.90573  	49.71410  	34.59632  	-1.18512  	0.03259  	0.83719  	0.84018  	-3.02442  	0.06061  	-0.08570  	-62.32086  	-0.94996  	247.96878  	247.08727  	-21095.58227  	-11450.10331  	0.00534  	0.00003  	0.00419  	0.00463  	0.00783  	0.00000  	0.00000  
48.87226  	29.66988  	49.90629  	49.71453  	34.60229  	-1.18512  	0.03352  	0.84044  	0.84471  	-3.02442  	0.06120  	-0.08568  	-62.37674  	-0.95059  	249.30598  	248.04793  	-21097.24638  	-11450.19480  	0.00535  	0.00003  	0.00420  	0.00464  	0.00785  	0.00000  	0.00000  
49.87558  	29.67141  	49.90699  	49.71574  	34.60704  	-1.18512  	0.03455  	0.84522  	0.84755  	-3.02442  	0.06122  	-0.08569  	-62.41746  	-0.94809  	250.14563  	249.45698  	-21098.63735  	-11450.37423  	0.00536  	0.00003  	0.00420  	0.00466  	0.00787  	0.00000  	0.00000  
50.87690  	29.67370  	49.90825  	49.71552  	34.61045  	-1.18512  	0.03303  	0.84843  	0.85264  	-3.02442  	0.06083  	-0.08570  	-62.43157  	-0.95539  	251.64804  	250.40419  	-21099.89829  	-11450.47098  	0.00536  	0.00003  	0.00419  	0.00463  	0.00788  	0.00000  	0.00000  
51.88022  	29.67588  	49.90909  	49.71618  	34.61248  	-1.18512  	0.03317  	0.85102  	0.85418  	-3.02442  	0.06272  	-0.08570  	-62.42976  	-0.95633  	252.10146  	251.16909  	-21100.82984  	-11450.61064  	0.00537  	0.00003  	0.00420  	0.00464  	0.00790  	0.00000  	0.00000  
52.88353  	29.67701  	49.90945  	49.71644  	34.61163  	-1.18512  	0.03401  	0.85431  	0.85722  	-3.02442  	0.06047  	-0.08576  	-62.40470  	-0.95680  	252.99880  	252.14151  	-21100.89179  	-11450.66877  	0.00537  	0.00002  	0.00419  	0.00465  	0.00791  	0.00000  	0.00000  
53.88488  	29.67831  	49.91095  	49.71671  	34.61117  	-1.18512  	0.03358  	0.85796  	0.86611  	-3.02442  	0.06320  	-0.08573  	-62.38253  	-0.96287  	255.62255  	253.21802  	-21101.07785  	-11450.83448  	0.00539  	0.00003  	0.00420  	0.00464  	0.00793  	0.00000  	0.00000  
54.88817  	29.67881  	49.91059  	49.71801  	34.60951  	-1.18512  	0.03311  	0.85952  	0.86771  	-3.02442  	0.06034  	-0.08566  	-62.35523  	-0.95466  	256.09386  	253.67636  	-21100.82094  	-11450.92165  	0.00539  	0.00003  	0.00419  	0.00464  	0.00794  	0.00000  	0.00000  
55.89049  	29.68077  	49.91179  	49.71823  	34.60582  	-1.18512  	0.03344  	0.86305  	0.87024  	-3.02442  	0.06031  	-0.08564  	-62.28368  	-0.95948  	256.84230  	254.72062  	-21100.43743  	-11451.05455  	0.00539  	0.00003  	0.00419  	0.00464  	0.00795  	0.00000  	0.00000  
56.89184  	29.68207  	49.91210  	49.71811  	34.60211  	-1.18512  	0.03392  	0.86643  	0.86835  	-3.02442  	0.06139  	-0.08567  	-62.22030  	-0.96165  	256.28458  	255.71824  	-21099.90377  	-11451.07238  	0.00539  	0.00003  	0.00420  	0.00465  	0.00797  	0.00000  	0.00000  
57.89513  	29.68290  	49.91266  	49.71811  	34.59748  	-1.18512  	0.03453  	0.86906  	0.87717  	-3.02442  	0.06200  	-0.08568  	-62.15124  	-0.96441  	258.88637  	256.49432  	-21099.06350  	-11451.12455  	0.00540  	0.00003  	0.00420  	0.00466  	0.00798  	0.00000  	0.00000  
58.89844  	29.68328  	49.91261  	49.71948  	34.59177  	-1.18512  	0.03416  	0.87187  	0.87505  	-3.02442  	0.06196  	-0.08565  	-62.07425  	-0.95739  	258.26036  	257.32356  	-21097.88376  	-11451.24700  	0.00540  	0.00003  	0.00420  	0.00466  	0.00799  	0.00000  	0.00000  
59.89977  	29.68500  	49.91421  	49.71957  	34.58585  	-1.18512  	0.03463  	0.87397  	0.87504  	-3.02442  	0.06039  	-0.08566  	-61.97765  	-0.96485  	258.25969  	257.94141  	-21096.95690  	-11451.40575  	0.00540  	0.00003  	0.00419  	0.00466  	0.00800  	0.00000  	0.00000  
60.90208  	29.68578  	49.91515  	49.72069  	34.57962  	-1.18512  	0.03430  	0.87647  	0.87876  	-3.02442  	0.06074  	-0.08571  	-61.88900  	-0.96399  	259.35537  	258.67899  	-21095.75013  	-11451.59812  	0.00541  	0.00003  	0.00419  	0.00466  	0.00801  	0.00000  	0.00000  
61.90540  	29.68628  	49.91616  	49.72076  	34.57303  	-1.18512  	0.03516  	0.87854  	0.88366  	-3.02442  	0.05990  	-0.08571  	-61.79934  	-0.96861  	260.80365  	259.29279  	-21094.40056  	-11451.69890  	0.00541  	0.00003  	0.00419  	0.00468  	0.00802  	0.00000  	0.00000  
62.90675  	29.68687  	49.91629  	49.72073  	34.56752  	-1.18512  	0.03533  	0.87974  	0.88507  	-3.02442  	0.06078  	-0.08568  	-61.72220  	-0.96942  	261.21738  	259.64466  	-21093.31306  	-11451.70795  	0.00542  	0.00003  	0.00419  	0.00468  	0.00803  	0.00000  	0.00000  
63.90907  	29.68723  	49.91669  	49.72207  	34.55871  	-1.18512  	0.03462  	0.88119  	0.89163  	-3.02442  	0.06340  	-0.08570  	-61.60629  	-0.96476  	263.15602  	260.07337  	-21091.44333  	-11451.87079  	0.00543  	0.00003  	0.00420  	0.00466  	0.00804  	0.00000  	0.00000  
64.91239  	29.68768  	49.91752  	49.72315  	34.55196  	-1.18512  	0.03503  	0.88282  	0.89422  	-3.02442  	0.06254  	-0.08568  	-61.51516  	-0.96354  	263.92053  	260.55368  	-21090.05066  	-11452.04817  	0.00543  	0.00003  	0.00420  	0.00467  	0.00804  	0.00000  	0.00000  
65.91567  	29.68801  	49.91852  	49.72346  	34.54494  	-1.18512  	0.03408  	0.88551  	0.89241  	-3.02442  	0.06286  	-0.08574  	-61.42226  	-0.96694  	263.38536  	261.34911  	-21088.56924  	-11452.17103  	0.00543  	0.00003  	0.00420  	0.00465  	0.00806  	0.00000  	0.00000  
66.91699  	29.68878  	49.91827  	49.72426  	34.53756  	-1.18512  	0.03473  	0.88683  	0.89532  	-3.02442  	0.06145  	-0.08568  	-61.31917  	-0.96174  	264.24376  	261.73757  	-21087.10963  	-11452.22316  	0.00543  	0.00003  	0.00420  	0.00467  	0.00806  	0.00000  	0.00000  
67.91931  	29.68870  	49.91884  	49.72483  	34.52970  	-1.18512  	0.03501  	0.88808  	0.89667  	-3.02442  	0.06118  	-0.08572  	-61.22086  	-0.96172  	264.64339  	262.10802  	-21085.35181  	-11452.32932  	0.00543  	0.00003  	0.00420  	0.00467  	0.00807  	0.00000  	0.00000  
68.92266  	29.68902  	49.91855  	49.72469  	34.52165  	-1.18512  	0.03475  	0.88439  	0.88969  	-3.02442  	0.06159  	-0.08579  	-61.11496  	-0.96100  	262.58106  	261.01727  	-21083.64009  	-11452.28835  	0.00542  	0.00002  	0.00420  	0.00467  	0.00805  	0.00000  	0.00000  
69.92398  	29.68997  	49.92000  	49.72502  	34.51493  	-1.18512  	0.03386  	0.87810  	0.88337  	-3.02442  	0.06262  	-0.08572  	-61.01787  	-0.96658  	260.71738  	259.16186  	-21082.36443  	-11452.45529  	0.00541  	0.00003  	0.00420  	0.00465  	0.00802  	0.00000  	0.00000  
70.92729  	29.68947  	49.92056  	49.72556  	34.50914  	-1.18512  	0.03518  	0.87128  	0.87525  	-3.02442  	0.06053  	-0.08572  	-60.95105  	-0.96664  	258.31933  	257.14877  	-21080.97400  	-11452.55825  	0.00540  	0.00003  	0.00419  	0.00468  	0.00799  	0.00000  	0.00000  
71.93058  	29.68769  	49.92092  	49.72622  	34.50282  	-1.18512  	0.03333  	0.86297  	0.87123  	-3.02442  	0.06158  	-0.08580  	-60.89361  	-0.96516  	257.13384  	254.69675  	-21079.18056  	-11452.65327  	0.00539  	0.00002  	0.00420  	0.00464  	0.00795  	0.00000  	0.00000  
72.93190  	29.68745  	49.92114  	49.72695  	34.50027  	-1.18512  	0.03289  	0.85472  	0.86156  	-3.02442  	0.06057  	-0.08567  	-60.86443  	-0.96267  	254.27998  	252.26192  	-21078.56630  	-11452.74181  	0.00538  	0.00003  	0.00419  	0.00463  	0.00791  	0.00000  	0.00000  
73.93522  	29.68607  	49.92217  	49.72702  	34.49858  	-1.18512  	0.03526  	0.84790  	0.85213  	-3.02442  	0.06059  	-0.08565  	-60.86051  	-0.96740  	251.49792  	250.24684  	-21077.88677  	-11452.84489  	0.00536  	0.00003  	0.00419  	0.00468  	0.00788  	0.00000  	0.00000  
74.93853  	29.68446  	49.92261  	49.72659  	34.49872  	-1.18512  	0.03396  	0.83804  	0.84402  	-3.02442  	0.06242  	-0.08577  	-60.88270  	-0.97171  	249.10283  	247.33958  	-21077.56009  	-11452.84509  	0.00535  	0.00002  	0.00420  	0.00465  	0.00784  	0.00000  	0.00000  
75.93986  	29.68265  	49.92223  	49.72681  	34.50197  	-1.18512  	0.03238  	0.82802  	0.82775  	-3.02442  	0.06038  	-0.08572  	-60.94667  	-0.96875  	244.30060  	244.38027  	-21077.87939  	-11452.83091  	0.00532  	0.00003  	0.00419  	0.00462  	0.00779  	0.00000  	0.00000  
76.94317  	29.68119  	49.92309  	49.72751  	34.50781  	-1.18512  	0.03257  	0.81659  	0.81979  	-3.02442  	0.06191  	-0.08570  	-61.03889  	-0.96956  	241.95175  	241.00657  	-21078.84787  	-11452.97636  	0.00531  	0.00003  	0.00420  	0.00463  	0.00774  	0.00000  	0.00000  
77.94649  	29.67948  	49.92414  	49.72795  	34.51512  	-1.18512  	0.03240  	0.80854  	0.81601  	-3.02442  	0.06095  	-0.08566  	-61.15295  	-0.97254  	240.83486  	238.63183  	-21080.08538  	-11453.11600  	0.00531  	0.00003  	0.00420  	0.00462  	0.00770  	0.00000  	0.00000  
78.94784  	29.67798  	49.92475  	49.72832  	34.52519  	-1.18512  	0.03171  	0.80521  	0.80697  	-3.02442  	0.06134  	-0.08569  	-61.29930  	-0.97373  	238.16778  	237.64827  	-21081.98214  	-11453.20685  	0.00529  	0.00003  	0.00420  	0.00461  	0.00769  	0.00000  	0.00000  
79.95113  	29.67645  	49.92429  	49.72949  	34.53933  	-1.18512  	0.03203  	0.80967  	0.81412  	-3.02442  	0.06158  	-0.08567  	-61.49752  	-0.96566  	240.27898  	238.96645  	-21084.77065  	-11453.27289  	0.00530  	0.00003  	0.00420  	0.00461  	0.00771  	0.00000  	0.00000  
80.95444  	29.67619  	49.92494  	49.73070  	34.55254  	-1.18512  	0.03210  	0.81360  	0.82067  	-3.02442  	0.06218  	-0.08566  	-61.66789  	-0.96290  	242.21023  	240.12582  	-21087.63667  	-11453.44793  	0.00531  	0.00003  	0.00420  	0.00462  	0.00772  	0.00000  	0.00000  
81.95576  	29.67699  	49.92616  	49.73187  	34.56746  	-1.18512  	0.03304  	0.81876  	0.81924  	-3.02442  	0.06088  	-0.08571  	-61.84635  	-0.96318  	241.79076  	241.64880  	-21091.11408  	-11453.67025  	0.00531  	0.00003  	0.00419  	0.00463  	0.00775  	0.00000  	0.00000  
82.95711  	29.67728  	49.92580  	49.73289  	34.58082  	-1.18512  	0.03288  	0.82300  	0.82726  	-3.02442  	0.06130  	-0.08572  	-62.01173  	-0.95630  	244.15713  	242.90040  	-21094.13567  	-11453.73159  	0.00532  	0.00003  	0.00420  	0.00463  	0.00777  	0.00000  	0.00000  
83.96043  	29.67952  	49.92673  	49.73307  	34.59399  	-1.18512  	0.03374  	0.82652  	0.83183  	-3.02442  	0.06041  	-0.08565  	-62.14990  	-0.95997  	245.50520  	243.93699  	-21097.54360  	-11453.83560  	0.00533  	0.00003  	0.00419  	0.00465  	0.00778  	0.00000  	0.00000  
84.96176  	29.68140  	49.92713  	49.73343  	34.60405  	-1.18512  	0.03311  	0.83032  	0.83779  	-3.02442  	0.06255  	-0.08572  	-62.25343  	-0.96021  	247.26527  	245.05864  	-21100.18664  	-11453.90657  	0.00534  	0.00003  	0.00420  	0.00464  	0.00780  	0.00000  	0.00000  
85.96404  	29.68393  	49.92704  	49.73461  	34.61310  	-1.18512  	0.03254  	0.83459  	0.83707  	-3.02442  	0.06135  	-0.08575  	-62.33584  	-0.95395  	247.05074  	246.32050  	-21102.74710  	-11454.00823  	0.00534  	0.00002  	0.00420  	0.00462  	0.00782  	0.00000  	0.00000  
86.96736  	29.68595  	49.92850  	49.73473  	34.62029  	-1.18512  	0.03216  	0.83902  	0.84475  	-3.02442  	0.06091  	-0.08566  	-62.40115  	-0.96060  	249.31987  	247.62815  	-21104.78672  	-11454.15586  	0.00535  	0.00003  	0.00419  	0.00462  	0.00784  	0.00000  	0.00000  
87.97067  	29.68731  	49.92804  	49.73527  	34.62668  	-1.18512  	0.03246  	0.84308  	0.84625  	-3.02442  	0.06107  	-0.08576  	-62.46483  	-0.95564  	249.76174  	248.82655  	-21106.50129  	-11454.16332  	0.00535  	0.00002  	0.00420  	0.00462  	0.00786  	0.00000  	0.00000  
88.97200  	29.68934  	49.92953  	49.73672  	34.62994  	-1.18512  	0.03401  	0.84666  	0.84888  	-3.02442  	0.06128  	-0.08565  	-62.48035  	-0.95582  	250.53871  	249.88183  	-21107.67292  	-11454.43803  	0.00536  	0.00003  	0.00420  	0.00465  	0.00788  	0.00000  	0.00000  
89.97434  	29.69043  	49.92993  	49.73682  	34.63132  	-1.18512  	0.03369  	0.85028  	0.85193  	-3.02442  	0.06028  	-0.08576  	-62.48398  	-0.95730  	251.43770  	250.95098  	-21108.21871  	-11454.48549  	0.00536  	0.00002  	0.00419  	0.00465  	0.00789  	0.00000  	0.00000  
90.97763  	29.69175  	49.92970  	49.73664  	34.63243  	-1.18512  	0.03386  	0.85281  	0.86121  	-3.02442  	0.06130  	-0.08568  	-62.48132  	-0.95705  	254.17575  	251.69647  	-21108.75565  	-11454.44643  	0.00538  	0.00003  	0.00420  	0.00465  	0.00790  	0.00000  	0.00000  
91.97898  	29.69383  	49.93040  	49.73685  	34.63179  	-1.18512  	0.03279  	0.85522  	0.86299  	-3.02442  	0.06114  	-0.08567  	-62.44702  	-0.95948  	254.70243  	252.40978  	-21109.07553  	-11454.53146  	0.00538  	0.00003  	0.00420  	0.00463  	0.00792  	0.00000  	0.00000  
92.98230  	29.69492  	49.93079  	49.73717  	34.62985  	-1.18512  	0.03267  	0.85933  	0.86466  	-3.02442  	0.06187  	-0.08567  	-62.40861  	-0.95986  	255.19511  	253.62300  	-21108.88596  	-11454.59775  	0.00538  	0.00003  	0.00420  	0.00463  	0.00793  	0.00000  	0.00000  
93.98558  	29.69575  	49.93168  	49.73699  	34.62710  	-1.18512  	0.03283  	0.86111  	0.86889  	-3.02442  	0.06180  	-0.08565  	-62.36339  	-0.96513  	256.44223  	254.14699  	-21108.46135  	-11454.66468  	0.00539  	0.00003  	0.00420  	0.00463  	0.00794  	0.00000  	0.00000  
94.98693  	29.69715  	49.93215  	49.73713  	34.62258  	-1.18512  	0.03365  	0.86433  	0.86711  	-3.02442  	0.05996  	-0.08570  	-62.28848  	-0.96677  	255.91703  	255.09805  	-21107.77107  	-11454.72041  	0.00539  	0.00003  	0.00419  	0.00465  	0.00796  	0.00000  	0.00000  
95.99022  	29.69813  	49.93241  	49.73853  	34.61839  	-1.18512  	0.03462  	0.86691  	0.87183  	-3.02442  	0.05983  	-0.08574  	-62.22308  	-0.96112  	257.31009  	255.85945  	-21107.06058  	-11454.87616  	0.00539  	0.00002  	0.00419  	0.00466  	0.00797  	0.00000  	0.00000  
96.99354  	29.69861  	49.93272  	49.73834  	34.61371  	-1.18512  	0.03288  	0.86989  	0.87692  	-3.02442  	0.06350  	-0.08572  	-62.15786  	-0.96358  	258.81173  	256.73782  	-21106.13052  	-11454.88772  	0.00540  	0.00003  	0.00420  	0.00463  	0.00798  	0.00000  	0.00000  
97.99486  	29.69930  	49.93292  	49.73881  	34.60838  	-1.18512  	0.03499  	0.87165  	0.87879  	-3.02442  	0.06196  	-0.08572  	-62.08176  	-0.96226  	259.36624  	257.25647  	-21105.10491  	-11454.95001  	0.00541  	0.00003  	0.00420  	0.00467  	0.00799  	0.00000  	0.00000  
98.99817  	29.70026  	49.93282  	49.74045  	34.60262  	-1.18512  	0.03274  	0.87393  	0.88210  	-3.02442  	0.06069  	-0.08569  	-61.99674  	-0.95363  	260.34337  	257.93013  	-21104.04439  	-11455.09326  	0.00541  	0.00003  	0.00419  	0.00463  	0.00800  	0.00000  	0.00000  
100.00152  	29.70150  	49.93359  	49.73970  	34.59556  	-1.18512  	0.03336  	0.87619  	0.88432  	-3.02442  	0.06190  	-0.08563  	-61.89179  	-0.96118  	260.99832  	258.59884  	-21102.75515  	-11455.09523  	0.00541  	0.00003  	0.00420  	0.00464  	0.00801  	0.00000  	0.00000  
101.00281  	29.70161  	49.93404  	49.74044  	34.58930  	-1.18512  	0.03569  	0.87817  	0.88289  	-3.02442  	0.06138  	-0.08568  	-61.81124  	-0.95973  	260.57539  	259.18125  	-21101.39273  	-11455.20685  	0.00541  	0.00003  	0.00420  	0.00469  	0.00802  	0.00000  	0.00000  
102.00613  	29.70193  	49.93350  	49.74118  	34.58186  	-1.18512  	0.03457  	0.88022  	0.88563  	-3.02442  	0.06272  	-0.08570  	-61.71297  	-0.95334  	261.38480  	259.78621  	-21099.81888  	-11455.22549  	0.00542  	0.00003  	0.00420  	0.00466  	0.00803  	0.00000  	0.00000  
103.00944  	29.70302  	49.93430  	49.74071  	34.57591  	-1.18512  	0.03341  	0.88197  	0.88819  	-3.02442  	0.06248  	-0.08572  	-61.62410  	-0.95968  	262.13985  	260.30488  	-21098.74272  	-11455.25610  	0.00542  	0.00003  	0.00420  	0.00464  	0.00804  	0.00000  	0.00000  
104.01077  	29.70313  	49.93481  	49.74115  	34.56810  	-1.18512  	0.03504  	0.88370  	0.89055  	-3.02442  	0.06284  	-0.08569  	-61.52394  	-0.96002  	262.83615  	260.81443  	-21097.04098  	-11455.34522  	0.00542  	0.00003  	0.00420  	0.00467  	0.00805  	0.00000  	0.00000  
105.01408  	29.70448  	49.93517  	49.74185  	34.56088  	-1.18512  	0.03437  	0.88635  	0.89409  	-3.02442  	0.06224  	-0.08568  	-61.41551  	-0.95833  	263.88220  	261.59565  	-21095.74126  	-11455.44314  	0.00543  	0.00003  	0.00420  	0.00466  	0.00806  	0.00000  	0.00000  
106.01743  	29.70459  	49.93633  	49.74207  	34.55332  	-1.18512  	0.03355  	0.88744  	0.89424  	-3.02442  	0.06328  	-0.08567  	-61.31852  	-0.96300  	263.92442  	261.91681  	-21094.09170  	-11455.57234  	0.00543  	0.00003  	0.00420  	0.00464  	0.00806  	0.00000  	0.00000  
107.01875  	29.70506  	49.93693  	49.74237  	34.54573  	-1.18512  	0.03491  	0.88647  	0.89282  	-3.02442  	0.06188  	-0.08571  	-61.21659  	-0.96448  	263.50733  	261.63175  	-21092.51820  	-11455.65724  	0.00543  	0.00003  	0.00420  	0.00467  	0.00806  	0.00000  	0.00000  
108.02007  	29.70525  	49.93695  	49.74244  	34.53829  	-1.18512  	0.03367  	0.88050  	0.88783  	-3.02442  	0.06108  	-0.08565  	-61.12009  	-0.96424  	262.03291  	259.87066  	-21090.91505  	-11455.66582  	0.00542  	0.00003  	0.00420  	0.00465  	0.00803  	0.00000  	0.00000  
109.02237  	29.70506  	49.93749  	49.74175  	34.53208  	-1.18512  	0.03420  	0.87322  	0.88044  	-3.02442  	0.06026  	-0.08568  	-61.04398  	-0.97033  	259.85110  	257.72115  	-21089.49705  	-11455.65079  	0.00541  	0.00003  	0.00419  	0.00466  	0.00800  	0.00000  	0.00000  
110.02568  	29.70573  	49.93757  	49.74195  	34.52583  	-1.18512  	0.03336  	0.86621  	0.87110  	-3.02442  	0.05946  	-0.08565  	-60.95651  	-0.96974  	257.09444  	255.65091  	-21088.26329  	-11455.67764  	0.00539  	0.00003  	0.00419  	0.00464  	0.00797  	0.00000  	0.00000  
111.02700  	29.70410  	49.93708  	49.74201  	34.52221  	-1.18512  	0.03234  	0.85903  	0.86420  	-3.02442  	0.05982  	-0.08567  	-60.93122  	-0.96699  	255.05856  	253.53438  	-21087.10115  	-11455.63719  	0.00538  	0.00003  	0.00419  	0.00462  	0.00793  	0.00000  	0.00000  
112.03033  	29.70222  	49.93861  	49.74256  	34.51870  	-1.18512  	0.03380  	0.85176  	0.85796  	-3.02442  	0.06282  	-0.08571  	-60.91075  	-0.97189  	253.21772  	251.38671  	-21085.90796  	-11455.83141  	0.00537  	0.00003  	0.00420  	0.00465  	0.00790  	0.00000  	0.00000  
