10/18/2024 13:51:19Time	T_hot_in(C)	T_cold_in(C)	T_cold_out(C)	T_hot_out(C)	mdot_cold(kg/s)	ASFASIFUAS(kg/s)	Diferencial_cold(bar)	Diferencial_hot(bar)	mdot_hot(kg/s)	ABS_cold(bar)	ABS_hot(bar)	q_cold(kW)	q_hot(kW)	ASFASYFY	Tau_cold_haste	Re_hot	Re_cold	U_global	PSIG_cold(bar)	R_fouling	PSIG_hot(bar)	PSID_hot(bar)	m_dot_hot	PSID_cold(bar)	m_dot_cold
1.73936  	0.00000  	0.00000  	0.00000  	0.00000  	-1.18512  	-0.20833  	-0.86278  	-2.50000  	-3.02442  	-1.25000  	-0.08628  	-0.00000  	-0.00000  	-737.84722  	-254.63905  	-9234.48090  	-3618.55272  	0.00000  	0.00000  	0.00000  	0.00000  	0.00000  	0.00000  	0.00000  
2.74267  	29.96099  	49.92777  	49.71567  	33.15503  	-1.18512  	0.04518  	1.29657  	1.32783  	-3.02442  	0.06264  	-0.08567  	-40.39284  	-1.05145  	391.89282  	382.66857  	-20841.85931  	-11452.30704  	0.00612  	0.00003  	0.00420  	0.00487  	0.00995  	0.00000  	0.00000  
3.74399  	29.96175  	49.92916  	49.71480  	33.15538  	-1.18512  	0.04643  	1.29681  	1.32580  	-3.02442  	0.06220  	-0.08575  	-40.38759  	-1.06266  	391.29624  	382.73898  	-20842.10408  	-11452.35602  	0.00612  	0.00002  	0.00420  	0.00489  	0.00995  	0.00000  	0.00000  
4.74731  	29.96265  	49.92696  	49.71454  	33.15618  	-1.18512  	0.04604  	1.29712  	1.32494  	-3.02442  	0.06109  	-0.08569  	-40.38638  	-1.05304  	391.03990  	382.83096  	-20842.47937  	-11452.12679  	0.00612  	0.00003  	0.00420  	0.00488  	0.00995  	0.00000  	0.00000  
5.74863  	29.96292  	49.92796  	49.71392  	33.15625  	-1.18512  	0.04626  	1.29633  	1.32419  	-3.02442  	0.06283  	-0.08575  	-40.38380  	-1.06104  	390.82055  	382.59795  	-20842.55200  	-11452.16157  	0.00612  	0.00002  	0.00420  	0.00489  	0.00995  	0.00000  	0.00000  
6.74895  	29.96325  	49.92839  	49.71428  	33.15616  	-1.18512  	0.04552  	1.29294  	1.32506  	-3.02442  	0.06138  	-0.08569  	-40.37853  	-1.06139  	391.07606  	381.59727  	-20842.60605  	-11452.23509  	0.00612  	0.00003  	0.00420  	0.00487  	0.00993  	0.00000  	0.00000  
7.75227  	29.96395  	49.92795  	49.71460  	33.15573  	-1.18512  	0.04539  	1.29049  	1.31745  	-3.02442  	0.06140  	-0.08574  	-40.36422  	-1.05763  	388.83027  	380.87509  	-20842.66750  	-11452.22489  	0.00611  	0.00003  	0.00420  	0.00487  	0.00992  	0.00000  	0.00000  
8.75556  	29.96394  	49.92747  	49.71607  	33.15652  	-1.18512  	0.04637  	1.28885  	1.31567  	-3.02442  	0.06273  	-0.08572  	-40.37428  	-1.04796  	388.30591  	380.38911  	-20842.83837  	-11452.31722  	0.00611  	0.00003  	0.00420  	0.00489  	0.00991  	0.00000  	0.00000  
9.75690  	29.96410  	49.92713  	49.71485  	33.15822  	-1.18512  	0.04780  	1.28885  	1.32043  	-3.02442  	0.06217  	-0.08570  	-40.39371  	-1.05233  	389.70968  	380.38838  	-20843.24798  	-11452.17074  	0.00611  	0.00003  	0.00420  	0.00492  	0.00991  	0.00000  	0.00000  
10.76022  	29.96413  	49.92772  	49.71475  	33.16018  	-1.18512  	0.04836  	1.28974  	1.31809  	-3.02442  	0.06166  	-0.08573  	-40.41821  	-1.05576  	389.01976  	380.65305  	-20843.68753  	-11452.21659  	0.00611  	0.00003  	0.00420  	0.00493  	0.00992  	0.00000  	0.00000  
11.76354  	29.96372  	49.92857  	49.71465  	33.16102  	-1.18512  	0.04748  	1.28948  	1.31859  	-3.02442  	0.06159  	-0.08571  	-40.43403  	-1.06047  	389.16854  	380.57442  	-20843.77990  	-11452.28740  	0.00611  	0.00003  	0.00420  	0.00491  	0.00992  	0.00000  	0.00000  
12.76486  	29.96409  	49.92841  	49.71474  	33.16315  	-1.18512  	0.04706  	1.28964  	1.31600  	-3.02442  	0.06344  	-0.08568  	-40.45635  	-1.05924  	388.40314  	380.62384  	-20844.33263  	-11452.28025  	0.00611  	0.00003  	0.00420  	0.00490  	0.00992  	0.00000  	0.00000  
13.76718  	29.96552  	49.92868  	49.71444  	33.16501  	-1.18512  	0.04602  	1.29007  	1.31990  	-3.02442  	0.06195  	-0.08567  	-40.46171  	-1.06207  	389.55279  	380.75037  	-20845.05943  	-11452.27733  	0.00611  	0.00003  	0.00420  	0.00488  	0.00992  	0.00000  	0.00000  
14.77046  	29.96576  	49.92846  	49.71412  	33.16670  	-1.18512  	0.04626  	1.29034  	1.31537  	-3.02442  	0.06108  	-0.08571  	-40.48009  	-1.06257  	388.21754  	380.82997  	-20845.48454  	-11452.22741  	0.00610  	0.00003  	0.00420  	0.00489  	0.00992  	0.00000  	0.00000  
15.77181  	29.96606  	49.92806  	49.71463  	33.16892  	-1.18512  	0.04586  	1.29028  	1.32028  	-3.02442  	0.06169  	-0.08573  	-40.50436  	-1.05807  	389.66615  	380.81045  	-20846.04098  	-11452.23758  	0.00611  	0.00003  	0.00420  	0.00488  	0.00992  	0.00000  	0.00000  
16.77513  	29.96633  	49.92774  	49.71418  	33.16944  	-1.18512  	0.04665  	1.29033  	1.32341  	-3.02442  	0.06160  	-0.08563  	-40.50750  	-1.05867  	390.59000  	380.82658  	-20846.21404  	-11452.16589  	0.00612  	0.00003  	0.00420  	0.00490  	0.00992  	0.00000  	0.00000  
17.77745  	29.96676  	49.92823  	49.71435  	33.17113  	-1.18512  	0.04608  	1.29100  	1.32068  	-3.02442  	0.06268  	-0.08572  	-40.52346  	-1.06026  	389.78492  	381.02487  	-20846.68026  	-11452.22669  	0.00611  	0.00003  	0.00420  	0.00488  	0.00992  	0.00000  	0.00000  
18.77877  	29.96741  	49.92808  	49.71430  	33.17152  	-1.18512  	0.04614  	1.29103  	1.31785  	-3.02442  	0.05978  	-0.08571  	-40.52015  	-1.05974  	388.94902  	381.03209  	-20846.90903  	-11452.20898  	0.00611  	0.00003  	0.00419  	0.00489  	0.00992  	0.00000  	0.00000  
19.78209  	29.96842  	49.92749  	49.71452  	33.17159  	-1.18512  	0.04779  	1.29079  	1.31952  	-3.02442  	0.06160  	-0.08567  	-40.50829  	-1.05575  	389.44310  	380.96157  	-20847.15027  	-11452.17403  	0.00611  	0.00003  	0.00420  	0.00492  	0.00992  	0.00000  	0.00000  
20.78440  	29.96848  	49.92742  	49.71476  	33.17266  	-1.18512  	0.04476  	1.29130  	1.32044  	-3.02442  	0.05993  	-0.08569  	-40.52102  	-1.05425  	389.71266  	381.11141  	-20847.39903  	-11452.19012  	0.00611  	0.00003  	0.00419  	0.00486  	0.00992  	0.00000  	0.00000  
21.78573  	29.96915  	49.92731  	49.71528  	33.17391  	-1.18512  	0.04579  	1.29197  	1.32085  	-3.02442  	0.06248  	-0.08568  	-40.52830  	-1.05110  	389.83536  	381.31165  	-20847.82187  	-11452.22760  	0.00611  	0.00003  	0.00420  	0.00488  	0.00993  	0.00000  	0.00000  
22.78704  	29.96981  	49.92860  	49.71439  	33.17451  	-1.18512  	0.04563  	1.29196  	1.32325  	-3.02442  	0.06076  	-0.08573  	-40.52762  	-1.06189  	390.54174  	381.30711  	-20848.09769  	-11452.26540  	0.00612  	0.00003  	0.00419  	0.00488  	0.00993  	0.00000  	0.00000  
23.79036  	29.97037  	49.92818  	49.71539  	33.17494  	-1.18512  	0.04562  	1.29187  	1.32210  	-3.02442  	0.06238  	-0.08570  	-40.52602  	-1.05488  	390.20410  	381.27965  	-20848.31922  	-11452.31978  	0.00612  	0.00003  	0.00420  	0.00488  	0.00993  	0.00000  	0.00000  
24.79268  	29.97093  	49.92729  	49.71419  	33.17566  	-1.18512  	0.04668  	1.29228  	1.32440  	-3.02442  	0.06113  	-0.08568  	-40.52801  	-1.05643  	390.88299  	381.40310  	-20848.60191  	-11452.12455  	0.00612  	0.00003  	0.00420  	0.00490  	0.00993  	0.00000  	0.00000  
25.79400  	29.97107  	49.92785  	49.71397  	33.17614  	-1.18512  	0.04838  	1.29205  	1.32070  	-3.02442  	0.06088  	-0.08571  	-40.53235  	-1.06027  	389.79131  	381.33354  	-20848.73625  	-11452.15652  	0.00611  	0.00003  	0.00419  	0.00493  	0.00993  	0.00000  	0.00000  
26.79732  	29.97154  	49.92819  	49.71449  	33.17607  	-1.18512  	0.04784  	1.29274  	1.31988  	-3.02442  	0.06206  	-0.08570  	-40.52546  	-1.05934  	389.54739  	381.53931  	-20848.82553  	-11452.23684  	0.00611  	0.00003  	0.00420  	0.00492  	0.00993  	0.00000  	0.00000  
27.80064  	29.97191  	49.92855  	49.71358  	33.17676  	-1.18512  	0.04768  	1.29371  	1.32300  	-3.02442  	0.06164  	-0.08578  	-40.52949  	-1.06567  	390.47022  	381.82450  	-20849.05783  	-11452.18463  	0.00612  	0.00002  	0.00420  	0.00492  	0.00994  	0.00000  	0.00000  
28.80096  	29.97304  	49.92777  	49.71408  	33.17584  	-1.18512  	0.04667  	1.29238  	1.32432  	-3.02442  	0.06129  	-0.08569  	-40.50364  	-1.05932  	390.85915  	381.43035  	-20849.10656  	-11452.15885  	0.00612  	0.00003  	0.00420  	0.00490  	0.00993  	0.00000  	0.00000  
29.80328  	29.97242  	49.92785  	49.71399  	33.17539  	-1.18512  	0.04632  	1.29256  	1.32329  	-3.02442  	0.06131  	-0.08573  	-40.50571  	-1.06015  	390.55522  	381.48575  	-20848.86895  	-11452.15830  	0.00612  	0.00003  	0.00420  	0.00489  	0.00993  	0.00000  	0.00000  
30.80659  	29.97265  	49.92803  	49.71413  	33.17661  	-1.18512  	0.04575  	1.29367  	1.31935  	-3.02442  	0.06029  	-0.08569  	-40.51823  	-1.06037  	389.39182  	381.81162  	-20849.19006  	-11452.18883  	0.00611  	0.00003  	0.00419  	0.00488  	0.00994  	0.00000  	0.00000  
31.80792  	29.97311  	49.92835  	49.71546  	33.17605  	-1.18512  	0.04732  	1.29249  	1.32393  	-3.02442  	0.06051  	-0.08569  	-40.50531  	-1.05535  	390.74405  	381.46333  	-20849.16584  	-11452.34231  	0.00612  	0.00003  	0.00419  	0.00491  	0.00993  	0.00000  	0.00000  
32.81123  	29.97402  	49.92715  	49.71510  	33.17645  	-1.18512  	0.04825  	1.29316  	1.31988  	-3.02442  	0.06205  	-0.08576  	-40.49895  	-1.05120  	389.54714  	381.66323  	-20849.45487  	-11452.19629  	0.00611  	0.00002  	0.00420  	0.00493  	0.00993  	0.00000  	0.00000  
33.81455  	29.97430  	49.92709  	49.71570  	33.17560  	-1.18512  	0.04656  	1.29360  	1.32635  	-3.02442  	0.06077  	-0.08562  	-40.48460  	-1.04792  	391.45870  	381.79176  	-20849.33172  	-11452.24626  	0.00612  	0.00003  	0.00419  	0.00489  	0.00994  	0.00000  	0.00000  
34.81587  	29.97415  	49.92821  	49.71431  	33.17681  	-1.18512  	0.04570  	1.29331  	1.32358  	-3.02442  	0.06274  	-0.08571  	-40.50178  	-1.06038  	390.64065  	381.70580  	-20849.56324  	-11452.22204  	0.00612  	0.00003  	0.00420  	0.00488  	0.00993  	0.00000  	0.00000  
35.81916  	29.97481  	49.92762  	49.71389  	33.17665  	-1.18512  	0.04621  	1.29341  	1.32574  	-3.02442  	0.06236  	-0.08571  	-40.49150  	-1.05952  	391.27742  	381.73566  	-20849.67515  	-11452.12725  	0.00612  	0.00003  	0.00420  	0.00489  	0.00993  	0.00000  	0.00000  
36.82250  	29.97483  	49.92927  	49.71546  	33.17604  	-1.18512  	0.04625  	1.29335  	1.32415  	-3.02442  	0.06030  	-0.08568  	-40.48342  	-1.05991  	390.80897  	381.71935  	-20849.54478  	-11452.42832  	0.00612  	0.00003  	0.00419  	0.00489  	0.00993  	0.00000  	0.00000  
37.82382  	29.97545  	49.93003  	49.71617  	33.17670  	-1.18512  	0.04586  	1.29317  	1.32356  	-3.02442  	0.06080  	-0.08567  	-40.48394  	-1.06018  	390.63418  	381.66584  	-20849.82532  	-11452.56565  	0.00612  	0.00003  	0.00419  	0.00488  	0.00993  	0.00000  	0.00000  
38.82711  	29.97599  	49.93094  	49.71729  	33.17668  	-1.18512  	0.04615  	1.29322  	1.32408  	-3.02442  	0.06152  	-0.08569  	-40.47683  	-1.05913  	390.78704  	381.68028  	-20849.94126  	-11452.75432  	0.00612  	0.00003  	0.00420  	0.00489  	0.00993  	0.00000  	0.00000  
39.83045  	29.97650  	49.93072  	49.71819  	33.17751  	-1.18512  	0.04631  	1.29401  	1.32582  	-3.02442  	0.06009  	-0.08568  	-40.48101  	-1.05358  	391.30095  	381.91356  	-20850.23659  	-11452.81798  	0.00612  	0.00003  	0.00419  	0.00489  	0.00994  	0.00000  	0.00000  
40.83175  	29.97664  	49.92880  	49.71696  	33.17630  	-1.18512  	0.04459  	1.29422  	1.32256  	-3.02442  	0.06026  	-0.08573  	-40.46389  	-1.05014  	390.34029  	381.97425  	-20850.00007  	-11452.52466  	0.00612  	0.00003  	0.00419  	0.00486  	0.00994  	0.00000  	0.00000  
41.83509  	29.97718  	49.92442  	49.71321  	33.17617  	-1.18512  	0.04651  	1.29442  	1.32500  	-3.02442  	0.06198  	-0.08564  	-40.45546  	-1.04702  	391.05823  	382.03486  	-20850.09131  	-11451.76587  	0.00612  	0.00003  	0.00420  	0.00489  	0.00994  	0.00000  	0.00000  
42.83841  	29.97699  	49.91825  	49.70891  	33.17629  	-1.18512  	0.04648  	1.29372  	1.32603  	-3.02442  	0.06349  	-0.08573  	-40.45941  	-1.03777  	391.36286  	381.82728  	-20850.07619  	-11450.78775  	0.00612  	0.00003  	0.00420  	0.00489  	0.00994  	0.00000  	0.00000  
43.83970  	29.97794  	49.90892  	49.70024  	33.17654  	-1.18512  	0.04464  	1.29302  	1.32337  	-3.02442  	0.06253  	-0.08568  	-40.45047  	-1.03447  	390.57768  	381.62149  	-20850.34186  	-11449.10642  	0.00612  	0.00003  	0.00420  	0.00486  	0.00993  	0.00000  	0.00000  
44.84105  	29.97915  	49.89995  	49.69104  	33.17580  	-1.18512  	0.04493  	1.29435  	1.32492  	-3.02442  	0.06272  	-0.08568  	-40.42586  	-1.03563  	391.03547  	382.01349  	-20850.44287  	-11447.40919  	0.00612  	0.00003  	0.00420  	0.00486  	0.00994  	0.00000  	0.00000  
45.84437  	29.98010  	49.88831  	49.68103  	33.17620  	-1.18512  	0.04567  	1.29470  	1.32465  	-3.02442  	0.06211  	-0.08570  	-40.41891  	-1.02751  	390.95687  	382.11531  	-20850.74265  	-11445.38821  	0.00612  	0.00003  	0.00420  	0.00488  	0.00994  	0.00000  	0.00000  
46.84769  	29.98013  	49.87880  	49.67072  	33.17508  	-1.18512  	0.04578  	1.29528  	1.32483  	-3.02442  	0.06293  	-0.08569  	-40.40424  	-1.03153  	391.00817  	382.28764  	-20850.50062  	-11443.53827  	0.00612  	0.00003  	0.00420  	0.00488  	0.00994  	0.00000  	0.00000  
47.84901  	29.98017  	49.86548  	49.65891  	33.17591  	-1.18512  	0.04631  	1.29342  	1.32449  	-3.02442  	0.06158  	-0.08569  	-40.41441  	-1.02400  	390.90946  	381.73783  	-20850.69361  	-11441.19160  	0.00612  	0.00003  	0.00420  	0.00489  	0.00993  	0.00000  	0.00000  
48.85232  	29.98114  	49.85346  	49.64683  	33.17611  	-1.18512  	0.04645  	1.29419  	1.32474  	-3.02442  	0.06239  	-0.08565  	-40.40462  	-1.02431  	390.98250  	381.96697  	-20850.95250  	-11438.94117  	0.00612  	0.00003  	0.00420  	0.00489  	0.00994  	0.00000  	0.00000  
49.85564  	29.98191  	49.84156  	49.63652  	33.17510  	-1.18512  	0.04716  	1.29553  	1.32627  	-3.02442  	0.05950  	-0.08563  	-40.38195  	-1.01644  	391.43431  	382.36127  	-20850.89848  	-11436.86778  	0.00612  	0.00003  	0.00419  	0.00491  	0.00994  	0.00000  	0.00000  
50.85696  	29.98191  	49.82915  	49.62476  	33.17302  	-1.18512  	0.04677  	1.29518  	1.32707  	-3.02442  	0.06172  	-0.08573  	-40.35574  	-1.01323  	391.66980  	382.25715  	-20850.44148  	-11434.61281  	0.00612  	0.00003  	0.00420  	0.00490  	0.00994  	0.00000  	0.00000  
51.86027  	29.98249  	49.81538  	49.61049  	33.17183  	-1.18512  	0.04701  	1.29443  	1.32609  	-3.02442  	0.06155  	-0.08571  	-40.33333  	-1.01570  	391.38117  	382.03627  	-20850.30531  	-11431.99496  	0.00612  	0.00003  	0.00420  	0.00490  	0.00994  	0.00000  	0.00000  
52.86257  	29.98382  	49.80273  	49.59901  	33.17023  	-1.18512  	0.04756  	1.29508  	1.32442  	-3.02442  	0.06257  	-0.08568  	-40.29631  	-1.00987  	390.88886  	382.22989  	-20850.24517  	-11429.74275  	0.00612  	0.00003  	0.00420  	0.00491  	0.00994  	0.00000  	0.00000  
53.86389  	29.98374  	49.79128  	49.58714  	33.16827  	-1.18512  	0.04658  	1.29523  	1.32508  	-3.02442  	0.06199  	-0.08565  	-40.27257  	-1.01203  	391.08396  	382.27158  	-20849.79394  	-11427.56669  	0.00612  	0.00003  	0.00420  	0.00489  	0.00994  	0.00000  	0.00000  
54.86723  	29.98337  	49.77958  	49.57467  	33.16782  	-1.18512  	0.04639  	1.29557  	1.32340  	-3.02442  	0.06094  	-0.08573  	-40.27157  	-1.01578  	390.58795  	382.37265  	-20849.61348  	-11425.31148  	0.00612  	0.00003  	0.00420  	0.00489  	0.00994  	0.00000  	0.00000  
55.87052  	29.98505  	49.76508  	49.56180  	33.16571  	-1.18512  	0.04604  	1.29222  	1.31956  	-3.02442  	0.06225  	-0.08572  	-40.22352  	-1.00768  	389.45371  	381.38505  	-20849.51964  	-11422.75681  	0.00611  	0.00003  	0.00420  	0.00488  	0.00993  	0.00000  	0.00000  
56.87087  	29.98613  	49.75402  	49.55190  	33.16381  	-1.18512  	0.04661  	1.29003  	1.31749  	-3.02442  	0.06119  	-0.08570  	-40.18598  	-1.00196  	388.84161  	380.73942  	-20849.33964  	-11420.80060  	0.00611  	0.00003  	0.00420  	0.00489  	0.00992  	0.00000  	0.00000  
57.87419  	29.98549  	49.74361  	49.54129  	33.16308  	-1.18512  	0.04655  	1.28777  	1.31665  	-3.02442  	0.06306  	-0.08567  	-40.18479  	-1.00291  	388.59498  	380.06980  	-20849.03787  	-11418.84013  	0.00611  	0.00003  	0.00420  	0.00489  	0.00991  	0.00000  	0.00000  
58.87748  	29.98536  	49.73256  	49.53062  	33.16111  	-1.18512  	0.04679  	1.28706  	1.31961  	-3.02442  	0.06226  	-0.08569  	-40.16153  	-1.00107  	389.46797  	379.86102  	-20848.57361  	-11416.81404  	0.00611  	0.00003  	0.00420  	0.00490  	0.00991  	0.00000  	0.00000  
59.87880  	29.98551  	49.72079  	49.51910  	33.16159  	-1.18512  	0.04618  	1.28747  	1.31997  	-3.02442  	0.06249  	-0.08569  	-40.16569  	-0.99983  	389.57406  	379.98352  	-20848.71436  	-11414.64079  	0.00611  	0.00003  	0.00420  	0.00489  	0.00991  	0.00000  	0.00000  
60.88214  	29.98687  	49.71072  	49.50835  	33.16135  	-1.18512  	0.04461  	1.28778  	1.31796  	-3.02442  	0.06157  	-0.08571  	-40.14544  	-1.00321  	388.98188  	380.07340  	-20848.95951  	-11412.69843  	0.00611  	0.00003  	0.00420  	0.00486  	0.00991  	0.00000  	0.00000  
61.88546  	29.98724  	49.70132  	49.49848  	33.16088  	-1.18512  	0.04386  	1.28829  	1.32150  	-3.02442  	0.06078  	-0.08568  	-40.13494  	-1.00551  	390.02706  	380.22511  	-20848.93761  	-11410.90089  	0.00611  	0.00003  	0.00419  	0.00484  	0.00991  	0.00000  	0.00000  
62.88678  	29.98675  	49.69115  	49.48757  	33.16082  	-1.18512  	0.04471  	1.28909  	1.31985  	-3.02442  	0.06153  	-0.08575  	-40.14029  	-1.00916  	389.54036  	380.46157  	-20848.81539  	-11408.93484  	0.00611  	0.00002  	0.00420  	0.00486  	0.00991  	0.00000  	0.00000  
63.89007  	29.98747  	49.68051  	49.47766  	33.15962  	-1.18512  	0.04501  	1.28925  	1.32129  	-3.02442  	0.06303  	-0.08569  	-40.11604  	-1.00558  	389.96468  	380.50652  	-20848.71064  	-11407.01867  	0.00611  	0.00003  	0.00420  	0.00486  	0.00992  	0.00000  	0.00000  
64.89341  	29.98843  	49.67223  	49.46836  	33.15931  	-1.18512  	0.04571  	1.28920  	1.31794  	-3.02442  	0.06298  	-0.08565  	-40.09993  	-1.01067  	388.97677  	380.49402  	-20848.85398  	-11405.37815  	0.00611  	0.00003  	0.00420  	0.00488  	0.00991  	0.00000  	0.00000  
65.89473  	29.98901  	49.66285  	49.45962  	33.15847  	-1.18512  	0.04539  	1.28903  	1.31839  	-3.02442  	0.06049  	-0.08573  	-40.08194  	-1.00747  	389.10915  	380.44418  	-20848.79753  	-11403.68915  	0.00611  	0.00003  	0.00419  	0.00487  	0.00991  	0.00000  	0.00000  
66.89705  	29.98961  	49.65433  	49.45219  	33.15712  	-1.18512  	0.04648  	1.28984  	1.31753  	-3.02442  	0.06203  	-0.08574  	-40.05725  	-1.00206  	388.85568  	380.68216  	-20848.63119  	-11402.20048  	0.00611  	0.00003  	0.00420  	0.00489  	0.00992  	0.00000  	0.00000  
67.89937  	29.99002  	49.64620  	49.44285  	33.15731  	-1.18512  	0.04531  	1.28851  	1.31834  	-3.02442  	0.06105  	-0.08564  	-40.05457  	-1.00808  	389.09230  	380.29025  	-20848.76278  	-11400.57151  	0.00611  	0.00003  	0.00420  	0.00487  	0.00991  	0.00000  	0.00000  
68.90269  	29.99070  	49.63761  	49.43654  	33.15667  	-1.18512  	0.04653  	1.29011  	1.32259  	-3.02442  	0.06010  	-0.08566  	-40.03783  	-0.99677  	390.34708  	380.76076  	-20848.77253  	-11399.18287  	0.00612  	0.00003  	0.00419  	0.00489  	0.00992  	0.00000  	0.00000  
69.90401  	29.99182  	49.63019  	49.42816  	33.15509  	-1.18512  	0.04571  	1.28979  	1.32121  	-3.02442  	0.06040  	-0.08568  	-40.00379  	-1.00148  	389.94038  	380.66610  	-20848.67099  	-11397.70869  	0.00611  	0.00003  	0.00419  	0.00488  	0.00992  	0.00000  	0.00000  
70.90632  	29.99273  	49.62205  	49.41980  	33.15455  	-1.18512  	0.04584  	1.29066  	1.32034  	-3.02442  	0.06231  	-0.08573  	-39.98536  	-1.00261  	389.68346  	380.92516  	-20848.75253  	-11396.16951  	0.00611  	0.00003  	0.00420  	0.00488  	0.00992  	0.00000  	0.00000  
71.90964  	29.99301  	49.61527  	49.41240  	33.15355  	-1.18512  	0.04499  	1.29061  	1.31871  	-3.02442  	0.06246  	-0.08567  	-39.96916  	-1.00568  	389.20371  	380.90863  	-20848.59549  	-11394.84843  	0.00611  	0.00003  	0.00420  	0.00486  	0.00992  	0.00000  	0.00000  
72.91096  	29.99434  	49.60806  	49.40509  	33.15232  	-1.18512  	0.04596  	1.29144  	1.31903  	-3.02442  	0.06181  	-0.08579  	-39.93691  	-1.00620  	389.29592  	381.15345  	-20848.61596  	-11393.49414  	0.00611  	0.00002  	0.00420  	0.00488  	0.00993  	0.00000  	0.00000  
73.91428  	29.99530  	49.60133  	49.39824  	33.15092  	-1.18512  	0.04531  	1.29090  	1.32063  	-3.02442  	0.06098  	-0.08572  	-39.90698  	-1.00678  	389.76938  	380.99464  	-20848.51896  	-11392.22882  	0.00611  	0.00003  	0.00420  	0.00487  	0.00992  	0.00000  	0.00000  
74.91561  	29.99506  	49.59380  	49.39180  	33.14958  	-1.18512  	0.04490  	1.29056  	1.31990  	-3.02442  	0.06138  	-0.08563  	-39.89307  	-1.00139  	389.55337  	380.89474  	-20848.17067  	-11390.92602  	0.00611  	0.00003  	0.00420  	0.00486  	0.00992  	0.00000  	0.00000  
75.91692  	29.99553  	49.58788  	49.38490  	33.14798  	-1.18512  	0.04580  	1.29054  	1.32227  	-3.02442  	0.06151  	-0.08566  	-39.86696  	-1.00620  	390.25435  	380.88848  	-20847.92134  	-11389.73064  	0.00612  	0.00003  	0.00420  	0.00488  	0.00992  	0.00000  	0.00000  
76.91924  	29.99583  	49.58146  	49.37831  	33.14769  	-1.18512  	0.04540  	1.29056  	1.32423  	-3.02442  	0.06225  	-0.08572  	-39.85948  	-1.00707  	390.83043  	380.89475  	-20847.92408  	-11388.51713  	0.00612  	0.00003  	0.00420  	0.00487  	0.00992  	0.00000  	0.00000  
77.92253  	29.99671  	49.57570  	49.37328  	33.14619  	-1.18512  	0.04547  	1.29152  	1.31943  	-3.02442  	0.06228  	-0.08568  	-39.82935  	-1.00345  	389.41657  	381.17840  	-20847.78512  	-11387.51222  	0.00611  	0.00003  	0.00420  	0.00487  	0.00993  	0.00000  	0.00000  
78.92487  	29.99627  	49.56890  	49.36678  	33.14372  	-1.18512  	0.04665  	1.29053  	1.31629  	-3.02442  	0.06198  	-0.08572  	-39.80364  	-1.00196  	388.48737  	380.88597  	-20847.14510  	-11386.27277  	0.00611  	0.00003  	0.00420  	0.00490  	0.00992  	0.00000  	0.00000  
79.92819  	29.99737  	49.56298  	49.36100  	33.14352  	-1.18512  	0.04566  	1.29151  	1.31814  	-3.02442  	0.06306  	-0.08574  	-39.78724  	-1.00129  	389.03536  	381.17523  	-20847.34454  	-11385.18187  	0.00611  	0.00002  	0.00420  	0.00488  	0.00993  	0.00000  	0.00000  
80.93151  	29.99844  	49.55728  	49.35534  	33.14165  	-1.18512  	0.04586  	1.29157  	1.32282  	-3.02442  	0.06281  	-0.08568  	-39.75001  	-1.00105  	390.41602  	381.19196  	-20847.16570  	-11384.12302  	0.00612  	0.00003  	0.00420  	0.00488  	0.00993  	0.00000  	0.00000  
81.93183  	29.99746  	49.55202  	49.35031  	33.14027  	-1.18512  	0.04675  	1.29168  	1.32308  	-3.02442  	0.06123  	-0.08560  	-39.74499  	-0.99997  	390.49375  	381.22566  	-20846.64681  	-11383.16323  	0.00612  	0.00003  	0.00420  	0.00490  	0.00993  	0.00000  	0.00000  
82.93415  	29.99829  	49.54723  	49.34478  	33.13877  	-1.18512  	0.04659  	1.29134  	1.32390  	-3.02442  	0.06149  	-0.08568  	-39.71556  	-1.00361  	390.73321  	381.12568  	-20846.49845  	-11382.20180  	0.00612  	0.00003  	0.00420  	0.00489  	0.00992  	0.00000  	0.00000  
83.93747  	29.99929  	49.54164  	49.33806  	33.13739  	-1.18512  	0.04617  	1.29242  	1.32341  	-3.02442  	0.06276  	-0.08564  	-39.68544  	-1.00922  	390.59083  	381.44196  	-20846.41551  	-11381.05414  	0.00612  	0.00003  	0.00420  	0.00489  	0.00993  	0.00000  	0.00000  
84.93879  	29.99930  	49.53630  	49.33483  	33.13603  	-1.18512  	0.04599  	1.29178  	1.32425  	-3.02442  	0.06183  	-0.08567  	-39.66819  	-0.99875  	390.83893  	381.25316  	-20846.11666  	-11380.25498  	0.00612  	0.00003  	0.00420  	0.00488  	0.00993  	0.00000  	0.00000  
85.94211  	30.00007  	49.53252  	49.33005  	33.13409  	-1.18512  	0.04732  	1.29185  	1.32193  	-3.02442  	0.06221  	-0.08577  	-39.63378  	-1.00373  	390.15348  	381.27445  	-20845.85944  	-11379.45790  	0.00612  	0.00002  	0.00420  	0.00491  	0.00993  	0.00000  	0.00000  
86.94542  	30.00025  	49.52763  	49.32549  	33.13376  	-1.18512  	0.04752  	1.29200  	1.32057  	-3.02442  	0.06205  	-0.08571  	-39.62729  	-1.00204  	389.75170  	381.32021  	-20845.82529  	-11378.57710  	0.00611  	0.00003  	0.00420  	0.00491  	0.00993  	0.00000  	0.00000  
87.94674  	30.00146  	49.52276  	49.31966  	33.13297  	-1.18512  	0.04596  	1.29231  	1.32434  	-3.02442  	0.06133  	-0.08565  	-39.60207  	-1.00684  	390.86344  	381.41157  	-20845.92049  	-11377.57924  	0.00612  	0.00003  	0.00420  	0.00488  	0.00993  	0.00000  	0.00000  
88.95006  	30.00184  	49.51801  	49.31566  	33.13205  	-1.18512  	0.04581  	1.29166  	1.31943  	-3.02442  	0.06265  	-0.08568  	-39.58562  	-1.00308  	389.41629  	381.21780  	-20845.80080  	-11376.76416  	0.00611  	0.00003  	0.00420  	0.00488  	0.00993  	0.00000  	0.00000  
89.95338  	30.00197  	49.51453  	49.31185  	33.13109  	-1.18512  	0.04732  	1.29165  	1.32279  	-3.02442  	0.06235  	-0.08567  	-39.57193  	-1.00476  	390.40609  	381.21529  	-20845.61714  	-11376.08439  	0.00612  	0.00003  	0.00420  	0.00491  	0.00993  	0.00000  	0.00000  
90.95669  	30.00186  	49.51056  	49.30789  	33.12969  	-1.18512  	0.04592  	1.29255  	1.32057  	-3.02442  	0.06097  	-0.08565  	-39.55551  	-1.00469  	389.75115  	381.48266  	-20845.28404  	-11375.34650  	0.00611  	0.00003  	0.00420  	0.00488  	0.00993  	0.00000  	0.00000  
91.95801  	30.00410  	49.50584  	49.30274  	33.12927  	-1.18512  	0.04514  	1.29200  	1.32353  	-3.02442  	0.06134  	-0.08562  	-39.52190  	-1.00679  	390.62506  	381.31921  	-20845.68284  	-11374.42572  	0.00612  	0.00003  	0.00420  	0.00487  	0.00993  	0.00000  	0.00000  
92.96033  	30.00413  	49.50088  	49.29909  	33.12908  	-1.18512  	0.04631  	1.29240  	1.32152  	-3.02442  	0.06166  	-0.08566  	-39.51911  	-1.00033  	390.03176  	381.43800  	-20845.64990  	-11373.62411  	0.00611  	0.00003  	0.00420  	0.00489  	0.00993  	0.00000  	0.00000  
93.96365  	30.00495  	49.49748  	49.29450  	33.12869  	-1.18512  	0.04504  	1.29350  	1.32674  	-3.02442  	0.06040  	-0.08564  	-39.50374  	-1.00621  	391.57287  	381.76313  	-20845.74351  	-11372.87880  	0.00612  	0.00003  	0.00419  	0.00486  	0.00993  	0.00000  	0.00000  
94.96497  	30.00415  	49.49464  	49.29224  	33.12690  	-1.18512  	0.04676  	1.29195  	1.32482  	-3.02442  	0.06243  	-0.08568  	-39.49124  	-1.00335  	391.00443  	381.30488  	-20845.17212  	-11372.40336  	0.00612  	0.00003  	0.00420  	0.00490  	0.00993  	0.00000  	0.00000  
95.96828  	30.00544  	49.49120  	49.28829  	33.12502  	-1.18512  	0.04462  	1.29241  	1.32250  	-3.02442  	0.06098  	-0.08563  	-39.45121  	-1.00584  	390.32248  	381.44021  	-20845.04131  	-11371.71509  	0.00612  	0.00003  	0.00420  	0.00486  	0.00993  	0.00000  	0.00000  
96.97160  	30.00623  	49.48739  	49.28460  	33.12446  	-1.18512  	0.04658  	1.29336  	1.32247  	-3.02442  	0.06110  	-0.08573  	-39.43415  	-1.00529  	390.31234  	381.71962  	-20845.09376  	-11371.01597  	0.00612  	0.00003  	0.00420  	0.00489  	0.00993  	0.00000  	0.00000  
97.97292  	30.00624  	49.48292  	49.28056  	33.12401  	-1.18512  	0.04669  	1.29390  	1.32419  	-3.02442  	0.06091  	-0.08571  	-39.42840  	-1.00317  	390.81863  	381.87928  	-20844.99616  	-11370.22378  	0.00612  	0.00003  	0.00419  	0.00490  	0.00994  	0.00000  	0.00000  
98.97624  	30.00634  	49.48005  	49.27710  	33.12381  	-1.18512  	0.04753  	1.29339  	1.32765  	-3.02442  	0.06064  	-0.08570  	-39.42452  	-1.00610  	391.84085  	381.73005  	-20844.97620  	-11369.63330  	0.00612  	0.00003  	0.00419  	0.00491  	0.00993  	0.00000  	0.00000  
99.97955  	30.00730  	49.47745  	49.27325  	33.12265  	-1.18512  	0.04725  	1.29240  	1.32350  	-3.02442  	0.06180  	-0.08570  	-39.39777  	-1.01227  	390.61706  	381.43870  	-20844.93170  	-11369.03245  	0.00612  	0.00003  	0.00420  	0.00491  	0.00993  	0.00000  	0.00000  
100.97988  	30.00769  	49.47505  	49.27125  	33.12191  	-1.18512  	0.04747  	1.29329  	1.32142  	-3.02442  	0.06104  	-0.08569  	-39.38353  	-1.01027  	390.00100  	381.70164  	-20844.85338  	-11368.62232  	0.00611  	0.00003  	0.00420  	0.00491  	0.00993  	0.00000  	0.00000  
