10/18/2024 11:50:09Time	T_hot_in(C)	T_cold_in(C)	T_cold_out(C)	T_hot_out(C)	mdot_cold(kg/s)	ASFASIFUAS(kg/s)	Diferencial_cold(bar)	Diferencial_hot(bar)	mdot_hot(kg/s)	ABS_cold(bar)	ABS_hot(bar)	q_cold(kW)	q_hot(kW)	ASFASYFY	Tau_cold_haste	Re_hot	Re_cold	U_global	PSIG_cold(bar)	R_fouling	PSIG_hot(bar)	PSID_hot(bar)	m_dot_hot	PSID_cold(bar)	m_dot_cold
1.74036  	0.00000  	0.00000  	0.00000  	0.00000  	-1.18512  	-0.20833  	-0.86278  	-2.50000  	-3.02442  	-1.25000  	-0.08628  	-0.00000  	-0.00000  	-737.84722  	-254.63905  	-9234.48090  	-3618.55272  	0.00000  	0.00000  	0.00000  	0.00000  	0.00000  	0.00000  	0.00000  
2.74369  	22.98001  	10.06007  	10.24875  	18.24803  	-1.18512  	0.02230  	0.50979  	0.50321  	-3.02442  	0.07041  	-0.08569  	-59.91568  	-0.93538  	148.51589  	150.45878  	-16214.28211  	-4832.17288  	0.00481  	0.00003  	0.00423  	0.00443  	0.00632  	0.00000  	0.00000  
3.74501  	22.98047  	10.05895  	10.24941  	18.24938  	-1.18512  	0.02284  	0.51282  	0.50083  	-3.02442  	0.07139  	-0.08572  	-59.90441  	-0.94422  	147.81576  	151.35211  	-16214.64307  	-4832.14265  	0.00480  	0.00003  	0.00423  	0.00444  	0.00634  	0.00000  	0.00000  
4.74833  	22.98057  	10.05876  	10.24898  	18.25073  	-1.18512  	0.02224  	0.51504  	0.50336  	-3.02442  	0.07125  	-0.08571  	-59.88853  	-0.94306  	148.56159  	152.00718  	-16214.93302  	-4832.10105  	0.00481  	0.00003  	0.00423  	0.00443  	0.00635  	0.00000  	0.00000  
5.75164  	22.97919  	10.05823  	10.24899  	18.25299  	-1.18512  	0.02234  	0.51710  	0.50923  	-3.02442  	0.07224  	-0.08571  	-59.84256  	-0.94574  	150.29473  	152.61526  	-16215.10969  	-4832.06644  	0.00481  	0.00003  	0.00423  	0.00443  	0.00636  	0.00000  	0.00000  
6.75296  	22.97889  	10.05788  	10.24865  	18.25704  	-1.18512  	0.02373  	0.52037  	0.50841  	-3.02442  	0.07063  	-0.08573  	-59.78736  	-0.94576  	150.05081  	153.58056  	-16215.86035  	-4832.02013  	0.00481  	0.00003  	0.00423  	0.00446  	0.00637  	0.00000  	0.00000  
7.75529  	22.97790  	10.05849  	10.24868  	18.26021  	-1.18512  	0.02276  	0.52140  	0.51042  	-3.02442  	0.07146  	-0.08573  	-59.73478  	-0.94290  	150.64575  	153.88674  	-16216.29673  	-4832.06338  	0.00482  	0.00003  	0.00423  	0.00444  	0.00638  	0.00000  	0.00000  
8.75860  	22.97745  	10.05769  	10.24818  	18.26369  	-1.18512  	0.02341  	0.52127  	0.51585  	-3.02442  	0.07120  	-0.08570  	-59.68496  	-0.94435  	152.24645  	153.84810  	-16216.90250  	-4831.97689  	0.00483  	0.00003  	0.00423  	0.00445  	0.00638  	0.00000  	0.00000  
9.75892  	22.97564  	10.05762  	10.24807  	18.26781  	-1.18512  	0.02501  	0.52019  	0.51025  	-3.02442  	0.07002  	-0.08572  	-59.60976  	-0.94418  	150.59361  	153.52757  	-16217.36547  	-4831.96467  	0.00482  	0.00003  	0.00422  	0.00448  	0.00637  	0.00000  	0.00000  
10.76224  	22.97561  	10.05664  	10.24773  	18.27111  	-1.18512  	0.02285  	0.51611  	0.50815  	-3.02442  	0.06976  	-0.08571  	-59.56770  	-0.94736  	149.97608  	152.32451  	-16218.02094  	-4831.87646  	0.00481  	0.00003  	0.00422  	0.00444  	0.00635  	0.00000  	0.00000  
11.76555  	22.97389  	10.05718  	10.24801  	18.27441  	-1.18512  	0.02352  	0.51462  	0.50289  	-3.02442  	0.07067  	-0.08573  	-59.50419  	-0.94606  	148.42097  	151.88508  	-16218.33664  	-4831.93087  	0.00480  	0.00003  	0.00423  	0.00445  	0.00635  	0.00000  	0.00000  
12.76687  	22.97155  	10.05688  	10.24696  	18.27844  	-1.18512  	0.02456  	0.50983  	0.49805  	-3.02442  	0.07108  	-0.08565  	-59.42351  	-0.94231  	146.99439  	150.47206  	-16218.67406  	-4831.84183  	0.00480  	0.00003  	0.00423  	0.00447  	0.00632  	0.00000  	0.00000  
13.77019  	22.97036  	10.05557  	10.24630  	18.28029  	-1.18512  	0.02297  	0.50752  	0.49331  	-3.02442  	0.07164  	-0.08569  	-59.38508  	-0.94559  	145.59520  	149.78783  	-16218.80645  	-4831.71067  	0.00479  	0.00003  	0.00423  	0.00444  	0.00631  	0.00000  	0.00000  
14.77351  	22.96777  	10.05512  	10.24641  	18.28184  	-1.18512  	0.02310  	0.50220  	0.49352  	-3.02442  	0.07044  	-0.08564  	-59.33267  	-0.94832  	145.65577  	148.22020  	-16218.59890  	-4831.68802  	0.00479  	0.00003  	0.00423  	0.00444  	0.00629  	0.00000  	0.00000  
15.77680  	22.96585  	10.05483  	10.24650  	18.28302  	-1.18512  	0.02365  	0.49949  	0.48824  	-3.02442  	0.07086  	-0.08570  	-59.29333  	-0.95020  	144.10005  	147.42024  	-16218.44989  	-4831.67485  	0.00478  	0.00003  	0.00423  	0.00445  	0.00628  	0.00000  	0.00000  
16.77815  	22.96361  	10.05458  	10.24637  	18.28313  	-1.18512  	0.02232  	0.49532  	0.48725  	-3.02442  	0.07075  	-0.08569  	-59.26358  	-0.95083  	143.80710  	146.18876  	-16218.02455  	-4831.64950  	0.00478  	0.00003  	0.00423  	0.00443  	0.00626  	0.00000  	0.00000  
17.78146  	22.96098  	10.05556  	10.24538  	18.28254  	-1.18512  	0.02199  	0.49141  	0.48056  	-3.02442  	0.07016  	-0.08571  	-59.23779  	-0.94106  	141.83217  	145.03295  	-16217.37929  	-4831.64918  	0.00477  	0.00003  	0.00422  	0.00442  	0.00624  	0.00000  	0.00000  
18.78475  	22.95867  	10.05461  	10.24494  	18.28000  	-1.18512  	0.02117  	0.48786  	0.47790  	-3.02442  	0.07144  	-0.08573  	-59.24068  	-0.94357  	141.04567  	143.98637  	-16216.40963  	-4831.55656  	0.00476  	0.00003  	0.00423  	0.00441  	0.00622  	0.00000  	0.00000  
19.78510  	22.95729  	10.05418  	10.24486  	18.27778  	-1.18512  	0.02049  	0.48453  	0.47268  	-3.02442  	0.07125  	-0.08577  	-59.25140  	-0.94532  	139.50761  	143.00249  	-16215.68888  	-4831.52305  	0.00476  	0.00002  	0.00423  	0.00439  	0.00621  	0.00000  	0.00000  
20.78842  	22.95511  	10.05384  	10.24438  	18.27433  	-1.18512  	0.02190  	0.47974  	0.46612  	-3.02442  	0.07150  	-0.08569  	-59.26742  	-0.94466  	137.56930  	141.58970  	-16214.56014  	-4831.46825  	0.00475  	0.00003  	0.00423  	0.00442  	0.00619  	0.00000  	0.00000  
21.79171  	22.95343  	10.05379  	10.24354  	18.27038  	-1.18512  	0.02133  	0.47613  	0.46192  	-3.02442  	0.07166  	-0.08574  	-59.29612  	-0.94070  	136.33187  	140.52400  	-16213.43539  	-4831.40944  	0.00474  	0.00003  	0.00423  	0.00441  	0.00617  	0.00000  	0.00000  
22.79306  	22.95059  	10.05312  	10.24313  	18.26690  	-1.18512  	0.02130  	0.47176  	0.45887  	-3.02442  	0.07192  	-0.08573  	-59.30424  	-0.94198  	135.43017  	139.23361  	-16212.16933  	-4831.33787  	0.00473  	0.00003  	0.00423  	0.00441  	0.00615  	0.00000  	0.00000  
23.79538  	22.94828  	10.05276  	10.24277  	18.26056  	-1.18512  	0.02118  	0.46773  	0.45843  	-3.02442  	0.07280  	-0.08571  	-59.35527  	-0.94203  	135.30031  	138.04650  	-16210.43731  	-4831.28962  	0.00473  	0.00003  	0.00423  	0.00441  	0.00613  	0.00000  	0.00000  
24.79769  	22.94707  	10.05239  	10.24223  	18.25434  	-1.18512  	0.02324  	0.46774  	0.45874  	-3.02442  	0.07120  	-0.08570  	-59.41869  	-0.94117  	135.39210  	138.04850  	-16208.95157  	-4831.22932  	0.00473  	0.00003  	0.00423  	0.00445  	0.00613  	0.00000  	0.00000  
25.79901  	22.94559  	10.05198  	10.24179  	18.24784  	-1.18512  	0.02140  	0.47144  	0.45924  	-3.02442  	0.06948  	-0.08571  	-59.48234  	-0.94102  	135.54057  	139.14120  	-16207.35357  	-4831.17242  	0.00473  	0.00003  	0.00422  	0.00441  	0.00615  	0.00000  	0.00000  
26.80134  	22.94360  	10.05106  	10.24220  	18.24172  	-1.18512  	0.02218  	0.47667  	0.46509  	-3.02442  	0.07200  	-0.08574  	-59.53456  	-0.94757  	137.26659  	140.68280  	-16205.73140  	-4831.13838  	0.00474  	0.00003  	0.00423  	0.00443  	0.00617  	0.00000  	0.00000  
27.80462  	22.94341  	10.05276  	10.24104  	18.23562  	-1.18512  	0.02272  	0.47910  	0.46746  	-3.02442  	0.07079  	-0.08572  	-59.60942  	-0.93341  	137.96710  	141.40086  	-16204.47387  	-4831.17408  	0.00475  	0.00003  	0.00423  	0.00444  	0.00618  	0.00000  	0.00000  
28.80597  	22.94322  	10.05150  	10.24074  	18.22998  	-1.18512  	0.02248  	0.48258  	0.47201  	-3.02442  	0.07063  	-0.08574  	-59.67843  	-0.93818  	139.30914  	142.42823  	-16203.30555  	-4831.07133  	0.00476  	0.00002  	0.00423  	0.00443  	0.00620  	0.00000  	0.00000  
29.80929  	22.94292  	10.05141  	10.24064  	18.22511  	-1.18512  	0.02283  	0.48605  	0.47193  	-3.02442  	0.07141  	-0.08572  	-59.73629  	-0.93813  	139.28359  	143.45263  	-16202.27096  	-4831.05831  	0.00476  	0.00003  	0.00423  	0.00444  	0.00621  	0.00000  	0.00000  
30.81260  	22.94244  	10.05038  	10.23997  	18.22190  	-1.18512  	0.02259  	0.48910  	0.47949  	-3.02442  	0.07151  	-0.08571  	-59.77090  	-0.93993  	141.51669  	144.35156  	-16201.53399  	-4830.94530  	0.00477  	0.00003  	0.00423  	0.00443  	0.00623  	0.00000  	0.00000  
31.81392  	22.94177  	10.04913  	10.23999  	18.21830  	-1.18512  	0.02149  	0.49299  	0.48106  	-3.02442  	0.07057  	-0.08569  	-59.80797  	-0.94618  	141.97876  	145.50128  	-16200.67794  	-4830.86356  	0.00477  	0.00003  	0.00423  	0.00441  	0.00625  	0.00000  	0.00000  
32.81723  	22.94312  	10.04921  	10.23947  	18.21557  	-1.18512  	0.02241  	0.49697  	0.48675  	-3.02442  	0.07263  	-0.08577  	-59.85962  	-0.94320  	143.65984  	146.67466  	-16200.40227  	-4830.83424  	0.00478  	0.00002  	0.00423  	0.00443  	0.00626  	0.00000  	0.00000  
33.82056  	22.94293  	10.04944  	10.23923  	18.21393  	-1.18512  	0.02301  	0.50047  	0.48997  	-3.02442  	0.07206  	-0.08574  	-59.87805  	-0.94091  	144.60878  	147.70743  	-16200.03715  	-4830.83322  	0.00478  	0.00003  	0.00423  	0.00444  	0.00628  	0.00000  	0.00000  
34.82185  	22.94297  	10.04891  	10.23882  	18.21413  	-1.18512  	0.02357  	0.50465  	0.49512  	-3.02442  	0.07133  	-0.08573  	-59.87608  	-0.94147  	146.12887  	148.94060  	-16200.08537  	-4830.77119  	0.00479  	0.00003  	0.00423  	0.00445  	0.00630  	0.00000  	0.00000  
35.82320  	22.94281  	10.04850  	10.23823  	18.21489  	-1.18512  	0.02285  	0.50692  	0.49569  	-3.02442  	0.07192  	-0.08577  	-59.86440  	-0.94064  	146.29741  	149.61081  	-16200.20569  	-4830.70476  	0.00479  	0.00002  	0.00423  	0.00444  	0.00631  	0.00000  	0.00000  
36.82652  	22.94306  	10.04952  	10.23787  	18.21625  	-1.18512  	0.02245  	0.50996  	0.50065  	-3.02442  	0.07209  	-0.08568  	-59.85023  	-0.93377  	147.76151  	150.50974  	-16200.52655  	-4830.74848  	0.00480  	0.00003  	0.00423  	0.00443  	0.00632  	0.00000  	0.00000  
37.82684  	22.94306  	10.04902  	10.23689  	18.21747  	-1.18512  	0.02292  	0.51300  	0.50078  	-3.02442  	0.07111  	-0.08567  	-59.83478  	-0.93138  	147.79909  	151.40679  	-16200.77152  	-4830.64966  	0.00480  	0.00003  	0.00423  	0.00444  	0.00634  	0.00000  	0.00000  
38.82816  	22.94255  	10.04814  	10.23808  	18.21931  	-1.18512  	0.02385  	0.51480  	0.50537  	-3.02442  	0.07004  	-0.08572  	-59.80511  	-0.94162  	149.15349  	151.93697  	-16201.03906  	-4830.67076  	0.00481  	0.00003  	0.00422  	0.00446  	0.00635  	0.00000  	0.00000  
39.83148  	22.94294  	10.04823  	10.23826  	18.22334  	-1.18512  	0.02367  	0.51719  	0.50593  	-3.02442  	0.07106  	-0.08570  	-59.75902  	-0.94209  	149.32001  	152.64424  	-16201.92026  	-4830.68909  	0.00481  	0.00003  	0.00423  	0.00445  	0.00636  	0.00000  	0.00000  
40.83476  	22.94243  	10.04815  	10.23736  	18.22697  	-1.18512  	0.02449  	0.51971  	0.51418  	-3.02442  	0.07132  	-0.08569  	-59.70659  	-0.93801  	151.75334  	153.38738  	-16202.54467  	-4830.62345  	0.00482  	0.00003  	0.00423  	0.00447  	0.00637  	0.00000  	0.00000  
41.83611  	22.94255  	10.04845  	10.23692  	18.23060  	-1.18512  	0.02344  	0.52233  	0.51182  	-3.02442  	0.07176  	-0.08577  	-59.66228  	-0.93436  	151.05817  	154.16066  	-16203.29639  	-4830.61403  	0.00482  	0.00002  	0.00423  	0.00445  	0.00638  	0.00000  	0.00000  
42.83943  	22.94229  	10.04798  	10.23666  	18.23351  	-1.18512  	0.02216  	0.52386  	0.51450  	-3.02442  	0.07175  	-0.08573  	-59.62198  	-0.93538  	151.84808  	154.61189  	-16203.82614  	-4830.56616  	0.00482  	0.00003  	0.00423  	0.00443  	0.00639  	0.00000  	0.00000  
43.84275  	22.94157  	10.04735  	10.23729  	18.23849  	-1.18512  	0.02427  	0.52067  	0.51271  	-3.02442  	0.07057  	-0.08569  	-59.54985  	-0.94167  	151.32028  	153.67080  	-16204.67745  	-4830.56588  	0.00482  	0.00003  	0.00423  	0.00447  	0.00637  	0.00000  	0.00000  
44.84307  	22.94156  	10.04767  	10.23719  	18.24295  	-1.18512  	0.02423  	0.51806  	0.51089  	-3.02442  	0.07265  	-0.08571  	-59.49322  	-0.93958  	150.78427  	152.89852  	-16205.57100  	-4830.58061  	0.00482  	0.00003  	0.00423  	0.00447  	0.00636  	0.00000  	0.00000  
45.84639  	22.94039  	10.04643  	10.23711  	18.24599  	-1.18512  	0.02449  	0.51492  	0.50554  	-3.02442  	0.07263  	-0.08569  	-59.44003  	-0.94535  	149.20449  	151.97182  	-16205.94321  	-4830.49288  	0.00481  	0.00003  	0.00423  	0.00447  	0.00635  	0.00000  	0.00000  
46.84970  	22.93885  	10.04663  	10.23723  	18.24902  	-1.18512  	0.02335  	0.51182  	0.50451  	-3.02442  	0.07178  	-0.08568  	-59.38211  	-0.94491  	148.89988  	151.05670  	-16206.24081  	-4830.51409  	0.00481  	0.00003  	0.00423  	0.00445  	0.00633  	0.00000  	0.00000  
47.85102  	22.93807  	10.04549  	10.23601  	18.25280  	-1.18512  	0.02396  	0.50743  	0.49673  	-3.02442  	0.07182  	-0.08573  	-59.32442  	-0.94452  	146.60518  	149.76140  	-16206.84259  	-4830.35687  	0.00479  	0.00003  	0.00423  	0.00446  	0.00631  	0.00000  	0.00000  
48.85434  	22.93590  	10.04609  	10.23605  	18.25522  	-1.18512  	0.02334  	0.50352  	0.49387  	-3.02442  	0.07242  	-0.08577  	-59.26624  	-0.94172  	145.76074  	148.60853  	-16206.89109  	-4830.39976  	0.00479  	0.00002  	0.00423  	0.00445  	0.00630  	0.00000  	0.00000  
49.85666  	22.93494  	10.04589  	10.23585  	18.25579  	-1.18512  	0.02331  	0.50039  	0.48990  	-3.02442  	0.07113  	-0.08569  	-59.24693  	-0.94176  	144.58747  	147.68330  	-16206.81381  	-4830.37278  	0.00478  	0.00003  	0.00423  	0.00445  	0.00628  	0.00000  	0.00000  
50.85798  	22.93356  	10.04619  	10.23549  	18.25549  	-1.18512  	0.02377  	0.49634  	0.48260  	-3.02442  	0.06976  	-0.08571  	-59.23319  	-0.93850  	142.43498  	146.48899  	-16206.47965  	-4830.36891  	0.00477  	0.00003  	0.00422  	0.00446  	0.00626  	0.00000  	0.00000  
51.86030  	22.93099  	10.04706  	10.23576  	18.25548  	-1.18512  	0.02333  	0.49231  	0.48353  	-3.02442  	0.07150  	-0.08571  	-59.20074  	-0.93550  	142.70885  	145.30019  	-16205.96238  	-4830.44457  	0.00477  	0.00003  	0.00423  	0.00445  	0.00624  	0.00000  	0.00000  
52.86361  	22.93025  	10.04643  	10.23645  	18.25357  	-1.18512  	0.02350  	0.48890  	0.48285  	-3.02442  	0.07108  	-0.08568  	-59.21569  	-0.94206  	142.50650  	144.29280  	-16205.43124  	-4830.44890  	0.00477  	0.00003  	0.00423  	0.00445  	0.00623  	0.00000  	0.00000  
53.86494  	22.92802  	10.04512  	10.23564  	18.25255  	-1.18512  	0.02312  	0.48547  	0.47468  	-3.02442  	0.07327  	-0.08573  	-59.20021  	-0.94454  	140.09572  	143.27988  	-16204.78182  	-4830.30829  	0.00476  	0.00003  	0.00423  	0.00444  	0.00621  	0.00000  	0.00000  
54.86725  	22.92775  	10.04589  	10.23525  	18.24964  	-1.18512  	0.02317  	0.48121  	0.47218  	-3.02442  	0.07235  	-0.08567  	-59.23363  	-0.93879  	139.35955  	142.02272  	-16204.14524  	-4830.33348  	0.00476  	0.00003  	0.00423  	0.00444  	0.00619  	0.00000  	0.00000  
55.87054  	22.92650  	10.04513  	10.23490  	18.24592  	-1.18512  	0.02226  	0.47701  	0.46941  	-3.02442  	0.07160  	-0.08571  	-59.26495  	-0.94079  	138.54114  	140.78432  	-16203.15159  	-4830.25941  	0.00475  	0.00003  	0.00423  	0.00443  	0.00617  	0.00000  	0.00000  
56.87189  	22.92651  	10.04534  	10.23434  	18.24188  	-1.18512  	0.02158  	0.47316  	0.46319  	-3.02442  	0.07144  	-0.08571  	-59.31626  	-0.93700  	136.70411  	139.64870  	-16202.34582  	-4830.23643  	0.00474  	0.00003  	0.00423  	0.00441  	0.00616  	0.00000  	0.00000  
57.87421  	22.92475  	10.04537  	10.23370  	18.23804  	-1.18512  	0.02221  	0.47021  	0.45797  	-3.02442  	0.07154  	-0.08571  	-59.34266  	-0.93366  	135.16415  	138.77794  	-16201.22262  	-4830.19586  	0.00473  	0.00003  	0.00423  	0.00443  	0.00614  	0.00000  	0.00000  
58.87753  	22.92322  	10.04547  	10.23345  	18.23293  	-1.18512  	0.02239  	0.46650  	0.45315  	-3.02442  	0.07133  	-0.08566  	-59.38787  	-0.93191  	133.74115  	137.68255  	-16199.89460  	-4830.18611  	0.00473  	0.00003  	0.00423  	0.00443  	0.00612  	0.00000  	0.00000  
59.87885  	22.92299  	10.04426  	10.23327  	18.22554  	-1.18512  	0.02221  	0.46914  	0.45490  	-3.02442  	0.07165  	-0.08571  	-59.47860  	-0.93703  	134.25800  	138.46145  	-16198.37166  	-4830.09336  	0.00473  	0.00003  	0.00423  	0.00443  	0.00614  	0.00000  	0.00000  
60.88015  	22.92305  	10.04389  	10.23241  	18.21957  	-1.18512  	0.02113  	0.47340  	0.46151  	-3.02442  	0.07235  	-0.08577  	-59.55504  	-0.93462  	136.20969  	139.71760  	-16197.18907  	-4830.01166  	0.00474  	0.00002  	0.00423  	0.00441  	0.00616  	0.00000  	0.00000  
61.88346  	22.92232  	10.04380  	10.23250  	18.21422  	-1.18512  	0.02138  	0.47876  	0.46797  	-3.02442  	0.07031  	-0.08575  	-59.61339  	-0.93553  	138.11539  	141.30211  	-16195.97188  	-4830.01174  	0.00475  	0.00002  	0.00422  	0.00441  	0.00618  	0.00000  	0.00000  
62.88677  	22.92263  	10.04398  	10.23232  	18.20813  	-1.18512  	0.02148  	0.48221  	0.46965  	-3.02442  	0.07212  	-0.08579  	-59.69452  	-0.93371  	138.61323  	142.31882  	-16194.81438  	-4830.01139  	0.00475  	0.00002  	0.00423  	0.00441  	0.00620  	0.00000  	0.00000  
63.88812  	22.92313  	10.04355  	10.23226  	18.20411  	-1.18512  	0.02257  	0.48672  	0.47604  	-3.02442  	0.07177  	-0.08570  	-59.75174  	-0.93553  	140.49818  	143.64892  	-16194.11117  	-4829.97920  	0.00476  	0.00003  	0.00423  	0.00443  	0.00622  	0.00000  	0.00000  
64.89044  	22.92509  	10.04343  	10.23251  	18.19977  	-1.18512  	0.02150  	0.49098  	0.48027  	-3.02442  	0.07213  	-0.08574  	-59.83149  	-0.93737  	141.74597  	144.90754  	-16193.63687  	-4829.98726  	0.00477  	0.00003  	0.00423  	0.00441  	0.00624  	0.00000  	0.00000  
65.89276  	22.92544  	10.04334  	10.23175  	18.19718  	-1.18512  	0.02296  	0.49437  	0.48164  	-3.02442  	0.07231  	-0.08574  	-59.86882  	-0.93406  	142.14964  	145.90734  	-16193.18717  	-4829.93129  	0.00477  	0.00002  	0.00423  	0.00444  	0.00625  	0.00000  	0.00000  
66.89408  	22.92734  	10.04426  	10.23139  	18.19543  	-1.18512  	0.02374  	0.49835  	0.48879  	-3.02442  	0.07119  	-0.08570  	-59.91492  	-0.92776  	144.26013  	147.08235  	-16193.21857  	-4829.96850  	0.00478  	0.00003  	0.00423  	0.00446  	0.00627  	0.00000  	0.00000  
67.89739  	22.92874  	10.04330  	10.23076  	18.19610  	-1.18512  	0.02415  	0.50061  	0.49342  	-3.02442  	0.07122  	-0.08569  	-59.92416  	-0.92937  	145.62630  	147.75002  	-16193.63039  	-4829.86309  	0.00479  	0.00003  	0.00423  	0.00446  	0.00628  	0.00000  	0.00000  
68.90072  	22.92944  	10.04275  	10.23139  	18.19599  	-1.18512  	0.02392  	0.50433  	0.49486  	-3.02442  	0.07152  	-0.08569  	-59.93442  	-0.93520  	146.05330  	148.84634  	-16193.75101  	-4829.86789  	0.00479  	0.00003  	0.00423  	0.00446  	0.00630  	0.00000  	0.00000  
69.90101  	22.92995  	10.04239  	10.23164  	18.19673  	-1.18512  	0.02349  	0.50865  	0.49939  	-3.02442  	0.07233  	-0.08569  	-59.93149  	-0.93822  	147.38924  	150.12319  	-16193.99961  	-4829.86039  	0.00480  	0.00003  	0.00423  	0.00445  	0.00632  	0.00000  	0.00000  
70.90436  	22.93156  	10.04193  	10.23059  	18.19891  	-1.18512  	0.02442  	0.51050  	0.50408  	-3.02442  	0.07155  	-0.08572  	-59.92425  	-0.93532  	148.77489  	150.66921  	-16194.75761  	-4829.76072  	0.00481  	0.00003  	0.00423  	0.00447  	0.00633  	0.00000  	0.00000  
71.90667  	22.93227  	10.04099  	10.23099  	18.20193  	-1.18512  	0.02239  	0.51366  	0.50557  	-3.02442  	0.07036  	-0.08570  	-59.89509  	-0.94195  	149.21233  	151.60236  	-16195.50254  	-4829.72433  	0.00481  	0.00003  	0.00423  	0.00443  	0.00634  	0.00000  	0.00000  
72.90800  	22.93194  	10.04124  	10.23114  	18.20362  	-1.18512  	0.02272  	0.51534  	0.50813  	-3.02442  	0.07212  	-0.08567  	-59.86948  	-0.94145  	149.96945  	152.09754  	-16195.77591  	-4829.75064  	0.00481  	0.00003  	0.00423  	0.00444  	0.00635  	0.00000  	0.00000  
73.91131  	22.93208  	10.04093  	10.23051  	18.20725  	-1.18512  	0.02252  	0.51772  	0.50925  	-3.02442  	0.07142  	-0.08568  	-59.82527  	-0.93984  	150.30017  	152.79791  	-16196.53016  	-4829.68845  	0.00481  	0.00003  	0.00423  	0.00443  	0.00636  	0.00000  	0.00000  
74.91463  	22.93268  	10.04089  	10.23103  	18.21202  	-1.18512  	0.02374  	0.52064  	0.51035  	-3.02442  	0.06973  	-0.08574  	-59.77243  	-0.94260  	150.62408  	153.66156  	-16197.60395  	-4829.72082  	0.00482  	0.00003  	0.00422  	0.00446  	0.00637  	0.00000  	0.00000  
75.91595  	22.93251  	10.04083  	10.23130  	18.21597  	-1.18512  	0.02364  	0.52240  	0.51137  	-3.02442  	0.07165  	-0.08573  	-59.72036  	-0.94425  	150.92376  	154.18025  	-16198.36075  	-4829.73494  	0.00482  	0.00003  	0.00423  	0.00445  	0.00638  	0.00000  	0.00000  
76.91927  	22.93261  	10.04082  	10.23170  	18.22024  	-1.18512  	0.02351  	0.51972  	0.50914  	-3.02442  	0.07203  	-0.08565  	-59.66752  	-0.94632  	150.26588  	153.39030  	-16199.23587  	-4829.76050  	0.00481  	0.00003  	0.00423  	0.00445  	0.00637  	0.00000  	0.00000  
77.92255  	22.93316  	10.04065  	10.23132  	18.22434  	-1.18512  	0.02341  	0.51544  	0.50348  	-3.02442  	0.07152  	-0.08572  	-59.62256  	-0.94529  	148.59586  	152.12509  	-16200.16470  	-4829.72382  	0.00481  	0.00003  	0.00423  	0.00445  	0.00635  	0.00000  	0.00000  
78.92390  	22.93221  	10.04054  	10.23022  	18.22857  	-1.18512  	0.02369  	0.51162  	0.50512  	-3.02442  	0.07087  	-0.08571  	-59.55704  	-0.94033  	149.07993  	151.00005  	-16200.82292  	-4829.64370  	0.00481  	0.00003  	0.00423  	0.00445  	0.00633  	0.00000  	0.00000  
79.92722  	22.93135  	10.04095  	10.23192  	18.23288  	-1.18512  	0.02392  	0.50820  	0.49761  	-3.02442  	0.07222  	-0.08568  	-59.49161  	-0.94675  	146.86305  	149.99026  	-16201.51098  	-4829.78434  	0.00480  	0.00003  	0.00423  	0.00446  	0.00632  	0.00000  	0.00000  
80.93051  	22.92953  	10.04042  	10.23181  	18.23546  	-1.18512  	0.02380  	0.50471  	0.48958  	-3.02442  	0.07261  	-0.08574  	-59.43582  	-0.94879  	144.49349  	148.95884  	-16201.66386  	-4829.74123  	0.00478  	0.00003  	0.00423  	0.00446  	0.00630  	0.00000  	0.00000  
81.93086  	22.92883  	10.04054  	10.23113  	18.23722  	-1.18512  	0.02298  	0.50031  	0.49251  	-3.02442  	0.07193  	-0.08565  	-59.40467  	-0.94489  	145.35792  	147.65951  	-16201.87532  	-4829.70418  	0.00479  	0.00003  	0.00423  	0.00444  	0.00628  	0.00000  	0.00000  
82.93218  	22.92732  	10.04111  	10.23002  	18.23832  	-1.18512  	0.02265  	0.49754  	0.48563  	-3.02442  	0.07176  	-0.08565  	-59.37163  	-0.93656  	143.32691  	146.84235  	-16201.79332  	-4829.66838  	0.00478  	0.00003  	0.00423  	0.00443  	0.00627  	0.00000  	0.00000  
83.93550  	22.92619  	10.04011  	10.22954  	18.23890  	-1.18512  	0.02260  	0.49315  	0.48082  	-3.02442  	0.07130  	-0.08570  	-59.35004  	-0.93913  	141.90947  	145.54883  	-16201.68486  	-4829.56991  	0.00477  	0.00003  	0.00423  	0.00443  	0.00625  	0.00000  	0.00000  
84.93881  	22.92498  	10.03974  	10.22875  	18.23801  	-1.18512  	0.02269  	0.48925  	0.47989  	-3.02442  	0.07112  	-0.08566  	-59.34602  	-0.93704  	141.63349  	144.39547  	-16201.26300  	-4829.49298  	0.00477  	0.00003  	0.00423  	0.00444  	0.00623  	0.00000  	0.00000  
85.94013  	22.92409  	10.03947  	10.22877  	18.23584  	-1.18512  	0.02209  	0.48610  	0.47407  	-3.02442  	0.07113  	-0.08572  	-59.36216  	-0.93843  	139.91647  	143.46596  	-16200.65152  	-4829.47617  	0.00476  	0.00003  	0.00423  	0.00442  	0.00621  	0.00000  	0.00000  
86.94345  	22.92189  	10.03913  	10.22884  	18.23423  	-1.18512  	0.02231  	0.48128  	0.47074  	-3.02442  	0.07249  	-0.08571  	-59.35466  	-0.94048  	138.93266  	142.04540  	-16199.88791  	-4829.45795  	0.00475  	0.00003  	0.00423  	0.00443  	0.00619  	0.00000  	0.00000  
87.94577  	22.92052  	10.03902  	10.22742  	18.23187  	-1.18512  	0.02255  	0.47675  	0.46672  	-3.02442  	0.07153  	-0.08567  	-59.36717  	-0.93401  	137.74659  	140.70681  	-16199.14284  	-4829.35689  	0.00475  	0.00003  	0.00423  	0.00443  	0.00617  	0.00000  	0.00000  
88.94709  	22.92000  	10.03953  	10.22831  	18.22781  	-1.18512  	0.02212  	0.47239  	0.46529  	-3.02442  	0.07109  	-0.08569  	-59.41213  	-0.93588  	137.32476  	139.42101  	-16198.22751  	-4829.44996  	0.00474  	0.00003  	0.00423  	0.00442  	0.00615  	0.00000  	0.00000  
89.95041  	22.91927  	10.03906  	10.22876  	18.22431  	-1.18512  	0.02040  	0.46988  	0.46036  	-3.02442  	0.07174  	-0.08572  	-59.44711  	-0.94043  	135.87052  	138.68006  	-16197.37961  	-4829.44862  	0.00474  	0.00003  	0.00423  	0.00439  	0.00614  	0.00000  	0.00000  
90.95372  	22.91763  	10.03867  	10.22946  	18.21922  	-1.18512  	0.02059  	0.46821  	0.45635  	-3.02442  	0.07218  	-0.08571  	-59.49072  	-0.94585  	134.68726  	138.18607  	-16196.03386  	-4829.46909  	0.00473  	0.00003  	0.00423  	0.00440  	0.00613  	0.00000  	0.00000  
91.95504  	22.91615  	10.03960  	10.22879  	18.21295  	-1.18512  	0.02165  	0.47133  	0.45856  	-3.02442  	0.07155  	-0.08576  	-59.55141  	-0.93793  	135.33963  	139.10656  	-16194.48298  	-4829.48646  	0.00473  	0.00002  	0.00423  	0.00442  	0.00615  	0.00000  	0.00000  
92.95836  	22.91607  	10.03883  	10.22865  	18.20828  	-1.18512  	0.02181  	0.47455  	0.46400  	-3.02442  	0.07117  	-0.08568  	-59.60968  	-0.94104  	136.94464  	140.05752  	-16193.53331  	-4829.42583  	0.00474  	0.00003  	0.00423  	0.00442  	0.00616  	0.00000  	0.00000  
93.96168  	22.91631  	10.03877  	10.22742  	18.20300  	-1.18512  	0.02151  	0.47936  	0.47048  	-3.02442  	0.07012  	-0.08572  	-59.67944  	-0.93526  	138.85703  	141.47696  	-16192.52428  	-4829.33968  	0.00475  	0.00003  	0.00422  	0.00441  	0.00618  	0.00000  	0.00000  
94.96300  	22.91771  	10.03876  	10.22703  	18.19773  	-1.18512  	0.02074  	0.48469  	0.47465  	-3.02442  	0.07113  	-0.08575  	-59.76390  	-0.93332  	140.08728  	143.05095  	-16191.75161  	-4829.31349  	0.00476  	0.00002  	0.00423  	0.00440  	0.00621  	0.00000  	0.00000  
95.96532  	22.91847  	10.03800  	10.22698  	18.19405  	-1.18512  	0.02286  	0.48921  	0.48187  	-3.02442  	0.07257  	-0.08573  	-59.82013  	-0.93689  	142.21754  	144.38481  	-16191.16812  	-4829.25986  	0.00477  	0.00003  	0.00423  	0.00444  	0.00623  	0.00000  	0.00000  
96.96860  	22.91876  	10.03789  	10.22702  	18.19071  	-1.18512  	0.02239  	0.49217  	0.48331  	-3.02442  	0.07221  	-0.08569  	-59.86620  	-0.93763  	142.64332  	145.25994  	-16190.55635  	-4829.25523  	0.00477  	0.00003  	0.00423  	0.00443  	0.00624  	0.00000  	0.00000  
97.96995  	22.91987  	10.03779  	10.22749  	18.18865  	-1.18512  	0.02079  	0.49634  	0.48644  	-3.02442  	0.06973  	-0.08567  	-59.90624  	-0.94049  	143.56867  	146.49038  	-16190.36822  	-4829.27965  	0.00478  	0.00003  	0.00422  	0.00440  	0.00626  	0.00000  	0.00000  
98.97327  	22.92070  	10.03795  	10.22721  	18.18712  	-1.18512  	0.02127  	0.50015  	0.48666  	-3.02442  	0.07081  	-0.08569  	-59.93623  	-0.93823  	143.63214  	147.61460  	-16190.22763  	-4829.27165  	0.00478  	0.00003  	0.00423  	0.00441  	0.00628  	0.00000  	0.00000  
99.97659  	22.92119  	10.03770  	10.22784  	18.18716  	-1.18512  	0.02187  	0.50399  	0.49261  	-3.02442  	0.07150  	-0.08574  	-59.94181  	-0.94263  	145.38921  	148.74711  	-16190.33290  	-4829.29731  	0.00479  	0.00003  	0.00423  	0.00442  	0.00630  	0.00000  	0.00000  
100.97691  	22.92328  	10.03843  	10.22687  	18.18776  	-1.18512  	0.02288  	0.50600  	0.49755  	-3.02442  	0.07248  	-0.08572  	-59.96067  	-0.93424  	146.84568  	149.34089  	-16190.87240  	-4829.28086  	0.00480  	0.00003  	0.00423  	0.00444  	0.00631  	0.00000  	0.00000  
101.98020  	22.92462  	10.03786  	10.22666  	18.18890  	-1.18512  	0.02442  	0.50989  	0.49818  	-3.02442  	0.07074  	-0.08578  	-59.96330  	-0.93597  	147.03181  	150.48719  	-16191.36618  	-4829.22922  	0.00480  	0.00002  	0.00423  	0.00447  	0.00632  	0.00000  	0.00000  
102.98351  	22.92524  	10.03780  	10.22700  	18.19130  	-1.18512  	0.02384  	0.51276  	0.49971  	-3.02442  	0.07188  	-0.08570  	-59.94067  	-0.93796  	147.48285  	151.33615  	-16191.97078  	-4829.24728  	0.00480  	0.00003  	0.00423  	0.00446  	0.00634  	0.00000  	0.00000  
103.98486  	22.92596  	10.03719  	10.22699  	18.19478  	-1.18512  	0.02348  	0.51438  	0.50514  	-3.02442  	0.07213  	-0.08575  	-59.90578  	-0.94098  	149.08530  	151.81248  	-16192.81064  	-4829.20646  	0.00481  	0.00002  	0.00423  	0.00445  	0.00635  	0.00000  	0.00000  
104.98718  	22.92659  	10.03759  	10.22649  	18.19729  	-1.18512  	0.02334  	0.51604  	0.50705  	-3.02442  	0.07118  	-0.08569  	-59.88196  	-0.93647  	149.65140  	152.30469  	-16193.43953  	-4829.20003  	0.00481  	0.00003  	0.00423  	0.00445  	0.00635  	0.00000  	0.00000  
105.99049  	22.92722  	10.03701  	10.22696  	18.20087  	-1.18512  	0.02421  	0.51945  	0.50646  	-3.02442  	0.07201  	-0.08579  	-59.84461  	-0.94170  	149.47682  	153.31117  	-16194.28158  	-4829.19195  	0.00481  	0.00002  	0.00423  	0.00446  	0.00637  	0.00000  	0.00000  
106.99382  	22.92765  	10.03737  	10.22691  	18.20575  	-1.18512  	0.02357  	0.52139  	0.51383  	-3.02442  	0.07165  	-0.08573  	-59.78831  	-0.93968  	151.65213  	153.88137  	-16195.34345  	-4829.21349  	0.00482  	0.00003  	0.00423  	0.00445  	0.00638  	0.00000  	0.00000  
107.99414  	22.92757  	10.03666  	10.22776  	18.20965  	-1.18512  	0.02367  	0.52268  	0.51548  	-3.02442  	0.07027  	-0.08574  	-59.73790  	-0.94740  	152.13820  	154.26355  	-16196.10892  	-4829.22241  	0.00482  	0.00003  	0.00422  	0.00445  	0.00638  	0.00000  	0.00000  
108.99745  	22.92816  	10.03745  	10.22766  	18.21465  	-1.18512  	0.02295  	0.52131  	0.51169  	-3.02442  	0.07113  	-0.08573  	-59.68193  	-0.94298  	151.02053  	153.85794  	-16197.22609  	-4829.26791  	0.00482  	0.00003  	0.00423  	0.00444  	0.00638  	0.00000  	0.00000  
110.00077  	22.92887  	10.03723  	10.22803  	18.21860  	-1.18512  	0.02300  	0.51786  	0.50801  	-3.02442  	0.07088  	-0.08569  	-59.64096  	-0.94589  	149.93281  	152.83975  	-16198.15741  	-4829.27843  	0.00481  	0.00003  	0.00423  	0.00444  	0.00636  	0.00000  	0.00000  
111.00209  	22.92871  	10.03595  	10.22724  	18.22355  	-1.18512  	0.02269  	0.51414  	0.50427  	-3.02442  	0.07103  	-0.08569  	-59.57629  	-0.94833  	148.83111  	151.74249  	-16199.11667  	-4829.14076  	0.00481  	0.00003  	0.00423  	0.00444  	0.00634  	0.00000  	0.00000  
112.00538  	22.92741  	10.03565  	10.22708  	18.22756  	-1.18512  	0.02348  	0.51168  	0.50242  	-3.02442  	0.07070  	-0.08570  	-59.50911  	-0.94904  	148.28322  	151.01593  	-16199.65756  	-4829.10992  	0.00480  	0.00003  	0.00423  	0.00445  	0.00633  	0.00000  	0.00000  
113.00872  	22.92728  	10.03599  	10.22647  	18.23011  	-1.18512  	0.02264  	0.50652  	0.49893  	-3.02442  	0.07020  	-0.08575  	-59.47512  	-0.94431  	147.25409  	149.49305  	-16200.14397  	-4829.09235  	0.00480  	0.00002  	0.00422  	0.00443  	0.00631  	0.00000  	0.00000  
114.01004  	22.92590  	10.03632  	10.22611  	18.23211  	-1.18512  	0.02274  	0.50443  	0.49413  	-3.02442  	0.07172  	-0.08571  	-59.43230  	-0.94089  	145.83818  	148.87559  	-16200.26768  	-4829.09013  	0.00479  	0.00003  	0.00423  	0.00444  	0.00630  	0.00000  	0.00000  
115.01336  	22.92528  	10.03575  	10.22690  	18.23490  	-1.18512  	0.02132  	0.50045  	0.49147  	-3.02442  	0.07117  	-0.08573  	-59.38918  	-0.94763  	145.05162  	147.70287  	-16200.69983  	-4829.10505  	0.00479  	0.00003  	0.00423  	0.00441  	0.00628  	0.00000  	0.00000  
116.01468  	22.92397  	10.03575  	10.22560  	18.23536  	-1.18512  	0.02171  	0.49661  	0.48742  	-3.02442  	0.07122  	-0.08572  	-59.36681  	-0.94120  	143.85724  	146.56775  	-16200.53129  	-4829.01812  	0.00478  	0.00003  	0.00423  	0.00442  	0.00626  	0.00000  	0.00000  
117.01600  	22.92269  	10.03527  	10.22607  	18.23608  	-1.18512  	0.02303  	0.49212  	0.48234  	-3.02442  	0.07107  	-0.08569  	-59.34137  	-0.94593  	142.35763  	145.24260  	-16200.41960  	-4829.01760  	0.00477  	0.00003  	0.00423  	0.00444  	0.00624  	0.00000  	0.00000  
118.01932  	22.92177  	10.03568  	10.22566  	18.23462  	-1.18512  	0.02299  	0.48941  	0.47995  	-3.02442  	0.07190  	-0.08568  	-59.34822  	-0.94187  	141.65135  	144.44256  	-16199.94340  	-4829.01788  	0.00477  	0.00003  	0.00423  	0.00444  	0.00623  	0.00000  	0.00000  
119.02261  	22.92085  	10.03481  	10.22524  	18.23334  	-1.18512  	0.02303  	0.48495  	0.47723  	-3.02442  	0.07172  	-0.08574  	-59.35285  	-0.94409  	140.84855  	143.12667  	-16199.50138  	-4828.93221  	0.00476  	0.00003  	0.00423  	0.00444  	0.00621  	0.00000  	0.00000  
