10/18/2024 09:38:46Time	T_hot_in(C)	T_cold_in(C)	T_cold_out(C)	T_hot_out(C)	mdot_cold(kg/s)	ASFASIFUAS(kg/s)	Diferencial_cold(bar)	Diferencial_hot(bar)	mdot_hot(kg/s)	ABS_cold(bar)	ABS_hot(bar)	q_cold(kW)	q_hot(kW)	ASFASYFY	Tau_cold_haste	Re_hot	Re_cold	U_global	PSIG_cold(bar)	R_fouling	PSIG_hot(bar)	PSID_hot(bar)	m_dot_hot	PSID_cold(bar)	m_dot_cold
1.74832  	0.00000  	0.00000  	0.00000  	0.00000  	-1.18512  	-0.20833  	-0.86278  	-2.50000  	-3.02442  	-1.25000  	-0.08628  	-0.00000  	-0.00000  	-737.84722  	-254.63905  	-9234.48090  	-3618.55272  	0.00000  	0.00000  	0.00000  	0.00000  	0.00000  	0.00000  	0.00000  
2.75164  	22.99521  	10.02917  	10.23437  	19.03620  	-1.18512  	0.03337  	0.84809  	0.85246  	-3.02442  	0.06923  	-0.08570  	-50.12864  	-1.01728  	251.59369  	250.30383  	-16375.47539  	-4829.16406  	0.00536  	0.00003  	0.00422  	0.00464  	0.00788  	0.00000  	0.00000  
3.75296  	22.99562  	10.02882  	10.23285  	19.03783  	-1.18512  	0.03422  	0.85055  	0.85154  	-3.02442  	0.07046  	-0.08563  	-50.11318  	-1.01147  	251.32139  	251.03184  	-16375.88553  	-4829.03964  	0.00536  	0.00003  	0.00423  	0.00466  	0.00789  	0.00000  	0.00000  
4.75628  	22.99708  	10.02926  	10.23323  	19.03958  	-1.18512  	0.03303  	0.85324  	0.85704  	-3.02442  	0.07032  	-0.08575  	-50.10953  	-1.01120  	252.94439  	251.82287  	-16376.52869  	-4829.09366  	0.00537  	0.00002  	0.00423  	0.00463  	0.00791  	0.00000  	0.00000  
5.75962  	22.99578  	10.02787  	10.23410  	19.04213  	-1.18512  	0.03339  	0.85482  	0.86019  	-3.02442  	0.06902  	-0.08574  	-50.06086  	-1.02239  	253.87532  	252.29064  	-16376.78189  	-4829.05926  	0.00538  	0.00002  	0.00422  	0.00464  	0.00791  	0.00000  	0.00000  
6.75994  	22.99635  	10.02815  	10.23329  	19.04527  	-1.18512  	0.03354  	0.85683  	0.86267  	-3.02442  	0.07211  	-0.08578  	-50.02824  	-1.01697  	254.60668  	252.88353  	-16377.52604  	-4829.02465  	0.00538  	0.00002  	0.00423  	0.00464  	0.00792  	0.00000  	0.00000  
7.76326  	22.99729  	10.02862  	10.23378  	19.04709  	-1.18512  	0.03375  	0.85891  	0.86426  	-3.02442  	0.07202  	-0.08569  	-50.01716  	-1.01707  	255.07627  	253.49897  	-16378.08275  	-4829.08798  	0.00538  	0.00003  	0.00423  	0.00465  	0.00793  	0.00000  	0.00000  
8.76655  	22.99717  	10.02859  	10.23309  	19.04900  	-1.18512  	0.03463  	0.86161  	0.86489  	-3.02442  	0.07197  	-0.08574  	-49.99136  	-1.01382  	255.26291  	254.29505  	-16378.44222  	-4829.04080  	0.00538  	0.00003  	0.00423  	0.00466  	0.00794  	0.00000  	0.00000  
9.76787  	22.99662  	10.02941  	10.23383  	19.05092  	-1.18512  	0.03457  	0.86229  	0.86648  	-3.02442  	0.07073  	-0.08574  	-49.96003  	-1.01345  	255.73095  	254.49597  	-16378.71798  	-4829.14373  	0.00539  	0.00002  	0.00423  	0.00466  	0.00795  	0.00000  	0.00000  
10.77118  	22.99718  	10.02943  	10.23329  	19.05296  	-1.18512  	0.03417  	0.86464  	0.86878  	-3.02442  	0.07099  	-0.08571  	-49.94137  	-1.01063  	256.41158  	255.18854  	-16379.24068  	-4829.10921  	0.00539  	0.00003  	0.00423  	0.00466  	0.00796  	0.00000  	0.00000  
11.77450  	22.99547  	10.02930  	10.23346  	19.05573  	-1.18512  	0.03585  	0.86711  	0.86813  	-3.02442  	0.07003  	-0.08576  	-49.88457  	-1.01215  	256.21814  	255.91858  	-16379.45452  	-4829.11224  	0.00539  	0.00002  	0.00422  	0.00469  	0.00797  	0.00000  	0.00000  
12.77582  	22.99732  	10.03020  	10.23417  	19.05759  	-1.18512  	0.03458  	0.86835  	0.86955  	-3.02442  	0.07031  	-0.08572  	-49.88449  	-1.01121  	256.63723  	256.28392  	-16380.20080  	-4829.21922  	0.00539  	0.00003  	0.00422  	0.00466  	0.00798  	0.00000  	0.00000  
13.77814  	22.99674  	10.03009  	10.23399  	19.05971  	-1.18512  	0.03442  	0.86892  	0.87474  	-3.02442  	0.07033  	-0.08572  	-49.85034  	-1.01084  	258.17001  	256.45331  	-16380.51125  	-4829.19975  	0.00540  	0.00003  	0.00423  	0.00466  	0.00798  	0.00000  	0.00000  
14.78148  	22.99663  	10.02956  	10.23423  	19.06295  	-1.18512  	0.03499  	0.86212  	0.86603  	-3.02442  	0.07024  	-0.08566  	-49.80796  	-1.01464  	255.59938  	254.44519  	-16381.14040  	-4829.18051  	0.00539  	0.00003  	0.00422  	0.00467  	0.00795  	0.00000  	0.00000  
15.78480  	22.99563  	10.02966  	10.23428  	19.06452  	-1.18512  	0.03479  	0.85612  	0.85750  	-3.02442  	0.07158  	-0.08573  	-49.77547  	-1.01438  	253.08288  	252.67547  	-16381.25514  	-4829.19046  	0.00537  	0.00003  	0.00423  	0.00467  	0.00792  	0.00000  	0.00000  
16.78612  	22.99517  	10.02906  	10.23477  	19.06618  	-1.18512  	0.03398  	0.84865  	0.85238  	-3.02442  	0.07086  	-0.08571  	-49.74862  	-1.01977  	251.57138  	250.46966  	-16381.49680  	-4829.18324  	0.00536  	0.00003  	0.00423  	0.00465  	0.00789  	0.00000  	0.00000  
17.78944  	22.99353  	10.02940  	10.23468  	19.06665  	-1.18512  	0.03401  	0.84088  	0.84277  	-3.02442  	0.07112  	-0.08575  	-49.72177  	-1.01766  	248.73344  	248.17606  	-16381.26015  	-4829.19965  	0.00535  	0.00002  	0.00423  	0.00465  	0.00785  	0.00000  	0.00000  
18.79176  	22.99199  	10.03006  	10.23491  	19.06799  	-1.18512  	0.03366  	0.83274  	0.83619  	-3.02442  	0.07033  	-0.08571  	-49.68535  	-1.01553  	246.79183  	245.77297  	-16381.21975  	-4829.25868  	0.00534  	0.00003  	0.00423  	0.00465  	0.00781  	0.00000  	0.00000  
19.79308  	22.98999  	10.03013  	10.23443  	19.06718  	-1.18512  	0.03291  	0.82540  	0.82859  	-3.02442  	0.07048  	-0.08568  	-49.67017  	-1.01284  	244.54872  	243.60660  	-16380.65602  	-4829.23123  	0.00533  	0.00003  	0.00423  	0.00463  	0.00778  	0.00000  	0.00000  
20.79640  	22.98884  	10.03095  	10.23426  	19.06664  	-1.18512  	0.03278  	0.81642  	0.81739  	-3.02442  	0.07038  	-0.08574  	-49.66259  	-1.00793  	241.24257  	240.95860  	-16380.31524  	-4829.27524  	0.00531  	0.00002  	0.00423  	0.00463  	0.00774  	0.00000  	0.00000  
21.79971  	22.98622  	10.03033  	10.23398  	19.06410  	-1.18512  	0.03456  	0.80889  	0.81197  	-3.02442  	0.07138  	-0.08571  	-49.66148  	-1.00961  	239.64381  	238.73369  	-16379.27851  	-4829.21505  	0.00530  	0.00003  	0.00423  	0.00466  	0.00770  	0.00000  	0.00000  
22.80103  	22.98434  	10.03118  	10.23458  	19.06222  	-1.18512  	0.03409  	0.80001  	0.80105  	-3.02442  	0.07072  	-0.08568  	-49.66155  	-1.00838  	236.41963  	236.11346  	-16378.52116  	-4829.31172  	0.00528  	0.00003  	0.00423  	0.00465  	0.00766  	0.00000  	0.00000  
23.80432  	22.98249  	10.03063  	10.23493  	19.05986  	-1.18512  	0.03288  	0.79165  	0.79093  	-3.02442  	0.07108  	-0.08575  	-49.66795  	-1.01280  	233.43523  	233.64749  	-16377.67305  	-4829.29825  	0.00527  	0.00002  	0.00423  	0.00463  	0.00762  	0.00000  	0.00000  
24.80764  	22.98023  	10.03094  	10.23360  	19.05553  	-1.18512  	0.03233  	0.78788  	0.78829  	-3.02442  	0.07206  	-0.08570  	-49.69427  	-1.00466  	232.65568  	232.53498  	-16376.34827  	-4829.23051  	0.00526  	0.00003  	0.00423  	0.00462  	0.00761  	0.00000  	0.00000  
25.80896  	22.97923  	10.03067  	10.23375  	19.05155  	-1.18512  	0.03115  	0.79140  	0.79095  	-3.02442  	0.07119  	-0.08572  	-49.73197  	-1.00677  	233.43970  	233.57210  	-16375.34619  	-4829.22271  	0.00527  	0.00003  	0.00423  	0.00460  	0.00762  	0.00000  	0.00000  
26.81227  	22.97890  	10.03027  	10.23393  	19.04716  	-1.18512  	0.03193  	0.79603  	0.79790  	-3.02442  	0.07038  	-0.08568  	-49.78331  	-1.00969  	235.49271  	234.93910  	-16374.39702  	-4829.20800  	0.00528  	0.00003  	0.00423  	0.00461  	0.00764  	0.00000  	0.00000  
27.81559  	22.97957  	10.03042  	10.23246  	19.04194  	-1.18512  	0.03203  	0.79962  	0.80219  	-3.02442  	0.07102  	-0.08572  	-49.85796  	-1.00167  	236.75786  	235.99975  	-16373.48252  	-4829.12012  	0.00528  	0.00003  	0.00423  	0.00462  	0.00766  	0.00000  	0.00000  
28.81691  	22.97965  	10.03045  	10.23269  	19.03893  	-1.18512  	0.03148  	0.80433  	0.80363  	-3.02442  	0.07042  	-0.08567  	-49.89702  	-1.00263  	237.18359  	237.38832  	-16372.89225  	-4829.13744  	0.00529  	0.00003  	0.00423  	0.00460  	0.00768  	0.00000  	0.00000  
29.82023  	22.98151  	10.03081  	10.23240  	19.03573  	-1.18512  	0.03331  	0.80842  	0.81182  	-3.02442  	0.07148  	-0.08571  	-49.96111  	-0.99939  	239.59934  	238.59531  	-16372.62553  	-4829.14193  	0.00530  	0.00003  	0.00423  	0.00464  	0.00770  	0.00000  	0.00000  
30.82354  	22.98295  	10.03098  	10.23269  	19.03301  	-1.18512  	0.03331  	0.81286  	0.81620  	-3.02442  	0.07130  	-0.08567  	-50.01373  	-0.99998  	240.89109  	239.90538  	-16372.36771  	-4829.17222  	0.00531  	0.00003  	0.00423  	0.00464  	0.00772  	0.00000  	0.00000  
31.82487  	22.98453  	10.03083  	10.23362  	19.03160  	-1.18512  	0.03256  	0.81622  	0.82013  	-3.02442  	0.07195  	-0.08570  	-50.05170  	-1.00536  	242.05332  	240.89703  	-16372.40062  	-4829.22489  	0.00531  	0.00003  	0.00423  	0.00463  	0.00774  	0.00000  	0.00000  
32.82821  	22.98585  	10.02999  	10.23325  	19.02939  	-1.18512  	0.03237  	0.81898  	0.82012  	-3.02442  	0.07220  	-0.08573  	-50.09635  	-1.00765  	242.04920  	241.71305  	-16372.22270  	-4829.14387  	0.00531  	0.00003  	0.00423  	0.00462  	0.00775  	0.00000  	0.00000  
33.83152  	22.98688  	10.03089  	10.23372  	19.02768  	-1.18512  	0.03311  	0.82128  	0.82190  	-3.02442  	0.07086  	-0.08572  	-50.13095  	-1.00555  	242.57413  	242.39121  	-16372.08533  	-4829.23547  	0.00532  	0.00003  	0.00423  	0.00464  	0.00776  	0.00000  	0.00000  
34.83285  	22.98769  	10.03222  	10.23365  	19.02750  	-1.18512  	0.03341  	0.82399  	0.82428  	-3.02442  	0.07093  	-0.08572  	-50.14352  	-0.99858  	243.27799  	243.19113  	-16372.21091  	-4829.31882  	0.00532  	0.00003  	0.00423  	0.00464  	0.00777  	0.00000  	0.00000  
35.83416  	22.98860  	10.03168  	10.23467  	19.02777  	-1.18512  	0.03326  	0.82629  	0.83076  	-3.02442  	0.07040  	-0.08570  	-50.15169  	-1.00635  	245.18828  	243.87156  	-16372.45030  	-4829.35098  	0.00533  	0.00003  	0.00423  	0.00464  	0.00778  	0.00000  	0.00000  
36.83748  	22.98990  	10.03112  	10.23487  	19.02755  	-1.18512  	0.03384  	0.82902  	0.83319  	-3.02442  	0.06963  	-0.08566  	-50.17097  	-1.01008  	245.90775  	244.67615  	-16372.66562  	-4829.32666  	0.00533  	0.00003  	0.00422  	0.00465  	0.00779  	0.00000  	0.00000  
37.84080  	22.99064  	10.03154  	10.23462  	19.02803  	-1.18512  	0.03550  	0.83356  	0.83456  	-3.02442  	0.07227  	-0.08572  	-50.17423  	-1.00681  	246.31224  	246.01634  	-16372.91052  	-4829.33783  	0.00534  	0.00003  	0.00423  	0.00468  	0.00782  	0.00000  	0.00000  
38.84113  	22.99068  	10.03112  	10.23483  	19.02911  	-1.18512  	0.03470  	0.83581  	0.83977  	-3.02442  	0.07048  	-0.08567  	-50.16110  	-1.00988  	247.84851  	246.68150  	-16373.13760  	-4829.32411  	0.00534  	0.00003  	0.00423  	0.00467  	0.00783  	0.00000  	0.00000  
39.84344  	22.99160  	10.03147  	10.23453  	19.02958  	-1.18512  	0.03416  	0.83839  	0.84025  	-3.02442  	0.07148  	-0.08571  	-50.16681  	-1.00668  	247.99022  	247.44034  	-16373.41720  	-4829.32730  	0.00534  	0.00003  	0.00423  	0.00466  	0.00784  	0.00000  	0.00000  
40.84676  	22.99208  	10.03189  	10.23583  	19.03125  	-1.18512  	0.03450  	0.84262  	0.84539  	-3.02442  	0.07133  	-0.08573  	-50.15161  	-1.01105  	249.50672  	248.68933  	-16373.84854  	-4829.44209  	0.00535  	0.00003  	0.00423  	0.00466  	0.00786  	0.00000  	0.00000  
41.84708  	22.99151  	10.03136  	10.23510  	19.03179  	-1.18512  	0.03414  	0.84461  	0.84855  	-3.02442  	0.07014  	-0.08576  	-50.13761  	-1.01005  	250.43871  	249.27685  	-16373.84323  	-4829.35776  	0.00536  	0.00002  	0.00422  	0.00466  	0.00787  	0.00000  	0.00000  
42.85040  	22.99289  	10.03090  	10.23576  	19.03358  	-1.18512  	0.03391  	0.84769  	0.85255  	-3.02442  	0.07161  	-0.08569  	-50.13248  	-1.01561  	251.62016  	250.18768  	-16374.48071  	-4829.37103  	0.00536  	0.00003  	0.00423  	0.00465  	0.00788  	0.00000  	0.00000  
43.85371  	22.99379  	10.03304  	10.23676  	19.03525  	-1.18512  	0.03459  	0.84933  	0.85522  	-3.02442  	0.07123  	-0.08573  	-50.12269  	-1.00997  	252.40909  	250.66971  	-16374.99636  	-4829.57991  	0.00537  	0.00003  	0.00423  	0.00466  	0.00789  	0.00000  	0.00000  
44.85501  	22.99351  	10.03234  	10.23672  	19.03775  	-1.18512  	0.03463  	0.85276  	0.85449  	-3.02442  	0.07002  	-0.08572  	-50.08743  	-1.01321  	252.19430  	251.68349  	-16375.44422  	-4829.53091  	0.00537  	0.00003  	0.00422  	0.00466  	0.00790  	0.00000  	0.00000  
45.85833  	22.99400  	10.03228  	10.23586  	19.03952  	-1.18512  	0.03511  	0.85429  	0.85621  	-3.02442  	0.07180  	-0.08572  	-50.07123  	-1.00928  	252.69969  	252.13516  	-16375.89960  	-4829.46950  	0.00537  	0.00003  	0.00423  	0.00467  	0.00791  	0.00000  	0.00000  
46.86164  	22.99365  	10.03243  	10.23572  	19.04160  	-1.18512  	0.03437  	0.85599  	0.85788  	-3.02442  	0.06925  	-0.08571  	-50.04057  	-1.00783  	253.19234  	252.63706  	-16376.24640  	-4829.47059  	0.00537  	0.00003  	0.00422  	0.00466  	0.00792  	0.00000  	0.00000  
47.86199  	22.99357  	10.03242  	10.23582  	19.04326  	-1.18512  	0.03335  	0.85892  	0.86158  	-3.02442  	0.06993  	-0.08568  	-50.01852  	-1.00841  	254.28650  	253.49979  	-16376.56477  	-4829.47620  	0.00538  	0.00003  	0.00422  	0.00464  	0.00793  	0.00000  	0.00000  
48.86528  	22.99395  	10.03271  	10.23475  	19.04522  	-1.18512  	0.03352  	0.86125  	0.86727  	-3.02442  	0.06979  	-0.08570  	-49.99846  	-1.00164  	255.96470  	254.18880  	-16377.03351  	-4829.42456  	0.00539  	0.00003  	0.00422  	0.00464  	0.00794  	0.00000  	0.00000  
49.86860  	22.99378  	10.03247  	10.23634  	19.04783  	-1.18512  	0.03461  	0.86397  	0.86755  	-3.02442  	0.07056  	-0.08568  	-49.96334  	-1.01072  	256.04628  	254.99240  	-16377.52579  	-4829.51389  	0.00539  	0.00003  	0.00423  	0.00466  	0.00796  	0.00000  	0.00000  
50.86992  	22.99317  	10.03315  	10.23690  	19.05039  	-1.18512  	0.03595  	0.86419  	0.86715  	-3.02442  	0.07118  	-0.08562  	-49.92306  	-1.01010  	255.92988  	255.05705  	-16377.91667  	-4829.59679  	0.00539  	0.00003  	0.00423  	0.00469  	0.00796  	0.00000  	0.00000  
51.87323  	22.99452  	10.03341  	10.23631  	19.05285  	-1.18512  	0.03487  	0.86594  	0.86953  	-3.02442  	0.07032  	-0.08568  	-49.90912  	-1.00591  	256.63129  	255.57308  	-16378.68425  	-4829.57469  	0.00539  	0.00003  	0.00423  	0.00467  	0.00796  	0.00000  	0.00000  
52.87655  	22.99484  	10.03266  	10.23658  	19.05433  	-1.18512  	0.03524  	0.86832  	0.87112  	-3.02442  	0.07105  	-0.08574  	-49.89440  	-1.01098  	257.10009  	256.27634  	-16379.04730  	-4829.54262  	0.00539  	0.00003  	0.00423  	0.00468  	0.00798  	0.00000  	0.00000  
53.87787  	22.99452  	10.03293  	10.23743  	19.05674  	-1.18512  	0.03571  	0.86950  	0.87568  	-3.02442  	0.07274  	-0.08572  	-49.85977  	-1.01380  	258.44586  	256.62408  	-16379.46623  	-4829.61722  	0.00540  	0.00003  	0.00423  	0.00469  	0.00798  	0.00000  	0.00000  
54.88119  	22.99509  	10.03360  	10.23682  	19.05834  	-1.18512  	0.03482  	0.86454  	0.86974  	-3.02442  	0.07256  	-0.08570  	-49.84678  	-1.00750  	256.69263  	255.15912  	-16379.90375  	-4829.62140  	0.00539  	0.00003  	0.00423  	0.00467  	0.00796  	0.00000  	0.00000  
55.88450  	22.99378  	10.03358  	10.23685  	19.06222  	-1.18512  	0.03355  	0.85932  	0.85837  	-3.02442  	0.07042  	-0.08573  	-49.78106  	-1.00770  	253.33768  	253.61949  	-16380.42138  	-4829.62175  	0.00537  	0.00003  	0.00423  	0.00464  	0.00793  	0.00000  	0.00000  
56.88583  	22.99285  	10.03290  	10.23684  	19.06261  	-1.18512  	0.03443  	0.85129  	0.85632  	-3.02442  	0.07073  	-0.08570  	-49.76429  	-1.01104  	252.73246  	251.24777  	-16380.31209  	-4829.57636  	0.00537  	0.00003  	0.00423  	0.00466  	0.00790  	0.00000  	0.00000  
57.88814  	22.99230  	10.03291  	10.23776  	19.06381  	-1.18512  	0.03383  	0.84394  	0.84691  	-3.02442  	0.07049  	-0.08574  	-49.74211  	-1.01560  	249.95697  	249.07922  	-16380.44235  	-4829.63765  	0.00536  	0.00003  	0.00423  	0.00465  	0.00786  	0.00000  	0.00000  
58.89146  	22.99161  	10.03309  	10.23776  	19.06424  	-1.18512  	0.03544  	0.83679  	0.83954  	-3.02442  	0.07177  	-0.08570  	-49.72799  	-1.01470  	247.78140  	246.97018  	-16380.39145  	-4829.64965  	0.00534  	0.00003  	0.00423  	0.00468  	0.00783  	0.00000  	0.00000  
59.89480  	22.98848  	10.03236  	10.23755  	19.06408  	-1.18512  	0.03373  	0.82769  	0.83002  	-3.02442  	0.07228  	-0.08571  	-49.69029  	-1.01728  	244.97211  	244.28373  	-16379.72868  	-4829.58728  	0.00533  	0.00003  	0.00423  	0.00465  	0.00779  	0.00000  	0.00000  
60.89613  	22.98652  	10.03259  	10.23754  	19.06292  	-1.18512  	0.03365  	0.82024  	0.82166  	-3.02442  	0.07035  	-0.08578  	-49.68028  	-1.01604  	242.50302  	242.08338  	-16379.09986  	-4829.60229  	0.00531  	0.00002  	0.00423  	0.00465  	0.00775  	0.00000  	0.00000  
61.89845  	22.98541  	10.03232  	10.23570  	19.06125  	-1.18512  	0.03211  	0.81088  	0.81597  	-3.02442  	0.06930  	-0.08564  	-49.68728  	-1.00824  	240.82461  	239.32228  	-16378.54154  	-4829.46190  	0.00531  	0.00003  	0.00422  	0.00462  	0.00771  	0.00000  	0.00000  
62.90076  	22.98414  	10.03278  	10.23489  	19.05980  	-1.18512  	0.03294  	0.80406  	0.80364  	-3.02442  	0.07104  	-0.08572  	-49.68963  	-1.00194  	237.18566  	237.30846  	-16377.99321  	-4829.43825  	0.00529  	0.00003  	0.00423  	0.00463  	0.00768  	0.00000  	0.00000  
63.90206  	22.98058  	10.03435  	10.23694  	19.05569  	-1.18512  	0.03264  	0.79407  	0.79594  	-3.02442  	0.07042  	-0.08571  	-49.69656  	-1.00432  	234.91212  	234.36020  	-16376.44965  	-4829.67885  	0.00527  	0.00003  	0.00423  	0.00463  	0.00763  	0.00000  	0.00000  
64.90441  	22.97886  	10.03340  	10.23675  	19.05253  	-1.18512  	0.03208  	0.78926  	0.78625  	-3.02442  	0.07063  	-0.08569  	-49.71484  	-1.00812  	232.05377  	232.94095  	-16375.47110  	-4829.60357  	0.00526  	0.00003  	0.00423  	0.00462  	0.00761  	0.00000  	0.00000  
65.90772  	22.97757  	10.03319  	10.23629  	19.04791  	-1.18512  	0.03230  	0.79052  	0.78770  	-3.02442  	0.07109  	-0.08571  	-49.75694  	-1.00684  	232.48135  	233.31343  	-16374.28051  	-4829.55861  	0.00526  	0.00003  	0.00423  	0.00462  	0.00762  	0.00000  	0.00000  
66.90904  	22.97646  	10.03297  	10.23583  	19.04349  	-1.18512  	0.03244  	0.79500  	0.79430  	-3.02442  	0.07074  	-0.08570  	-49.79888  	-1.00569  	234.42742  	234.63613  	-16373.16978  	-4829.51369  	0.00527  	0.00003  	0.00423  	0.00462  	0.00764  	0.00000  	0.00000  
67.91236  	22.97643  	10.03325  	10.23694  	19.03917  	-1.18512  	0.03211  	0.79940  	0.79967  	-3.02442  	0.07042  	-0.08564  	-49.85326  	-1.00977  	236.01394  	235.93431  	-16372.29431  	-4829.60556  	0.00528  	0.00003  	0.00423  	0.00462  	0.00766  	0.00000  	0.00000  
68.91468  	22.97773  	10.03367  	10.23607  	19.03708  	-1.18512  	0.03251  	0.80354  	0.80466  	-3.02442  	0.06988  	-0.08569  	-49.89612  	-1.00340  	237.48606  	237.15695  	-16372.13710  	-4829.57619  	0.00529  	0.00003  	0.00422  	0.00462  	0.00768  	0.00000  	0.00000  
69.91597  	22.97977  	10.03328  	10.23613  	19.03437  	-1.18512  	0.03341  	0.80857  	0.80887  	-3.02442  	0.07064  	-0.08579  	-49.95625  	-1.00562  	238.72877  	238.64193  	-16372.00216  	-4829.55385  	0.00529  	0.00002  	0.00423  	0.00464  	0.00770  	0.00000  	0.00000  
70.91929  	22.98016  	10.03359  	10.23697  	19.02969  	-1.18512  	0.03258  	0.81196  	0.81149  	-3.02442  	0.06998  	-0.08572  	-50.02049  	-1.00828  	239.50254  	239.64021  	-16371.13932  	-4829.63084  	0.00530  	0.00003  	0.00422  	0.00463  	0.00772  	0.00000  	0.00000  
71.92260  	22.98293  	10.03279  	10.23531  	19.02730  	-1.18512  	0.03252  	0.81557  	0.82009  	-3.02442  	0.07263  	-0.08567  	-50.08580  	-1.00403  	242.04146  	240.70672  	-16371.21492  	-4829.46688  	0.00531  	0.00003  	0.00423  	0.00462  	0.00773  	0.00000  	0.00000  
72.92392  	22.98367  	10.03414  	10.23623  	19.02517  	-1.18512  	0.03405  	0.81842  	0.82125  	-3.02442  	0.07095  	-0.08570  	-50.12204  	-1.00188  	242.38191  	241.54859  	-16370.93431  	-4829.61783  	0.00531  	0.00003  	0.00423  	0.00465  	0.00775  	0.00000  	0.00000  
73.92627  	22.98482  	10.03483  	10.23627  	19.02459  	-1.18512  	0.03356  	0.82331  	0.82478  	-3.02442  	0.07145  	-0.08574  	-50.14402  	-0.99866  	243.42362  	242.98951  	-16371.04794  	-4829.66666  	0.00532  	0.00002  	0.00423  	0.00464  	0.00777  	0.00000  	0.00000  
74.92959  	22.98609  	10.03413  	10.23673  	19.02444  	-1.18512  	0.03432  	0.82682  	0.82760  	-3.02442  	0.07127  	-0.08568  	-50.16204  	-1.00440  	244.25709  	244.02760  	-16371.27547  	-4829.65043  	0.00532  	0.00003  	0.00423  	0.00466  	0.00778  	0.00000  	0.00000  
75.93088  	22.98676  	10.03578  	10.23777  	19.02432  	-1.18512  	0.03414  	0.82971  	0.83466  	-3.02442  	0.07098  	-0.08570  	-50.17203  	-1.00138  	246.34029  	244.87916  	-16371.38472  	-4829.82926  	0.00534  	0.00003  	0.00423  	0.00466  	0.00780  	0.00000  	0.00000  
76.93419  	22.98755  	10.03514  	10.23802  	19.02422  	-1.18512  	0.03485  	0.83356  	0.83410  	-3.02442  	0.07081  	-0.08573  	-50.18332  	-1.00581  	246.17606  	246.01534  	-16371.52518  	-4829.80329  	0.00533  	0.00003  	0.00423  	0.00467  	0.00782  	0.00000  	0.00000  
77.93751  	22.98857  	10.03440  	10.23770  	19.02469  	-1.18512  	0.03461  	0.83652  	0.83910  	-3.02442  	0.07068  	-0.08575  	-50.19032  	-1.00787  	247.65108  	246.88844  	-16371.82457  	-4829.73259  	0.00534  	0.00002  	0.00423  	0.00466  	0.00783  	0.00000  	0.00000  
78.93883  	22.98966  	10.03523  	10.23833  	19.02493  	-1.18512  	0.03429  	0.83883  	0.84097  	-3.02442  	0.07087  	-0.08572  	-50.20096  	-1.00688  	248.20422  	247.57277  	-16372.09007  	-4829.82965  	0.00535  	0.00003  	0.00423  	0.00466  	0.00784  	0.00000  	0.00000  
79.94015  	22.99045  	10.03521  	10.23839  	19.02677  	-1.18512  	0.03335  	0.84199  	0.84559  	-3.02442  	0.07145  	-0.08573  	-50.18772  	-1.00724  	249.56690  	248.50485  	-16372.62169  	-4829.83215  	0.00535  	0.00003  	0.00423  	0.00464  	0.00785  	0.00000  	0.00000  
80.94347  	22.99087  	10.03453  	10.23850  	19.02792  	-1.18512  	0.03232  	0.84425  	0.84836  	-3.02442  	0.07123  	-0.08570  	-50.17851  	-1.01121  	250.38545  	249.16954  	-16372.93648  	-4829.79418  	0.00536  	0.00003  	0.00423  	0.00462  	0.00786  	0.00000  	0.00000  
81.94679  	22.99117  	10.03493  	10.23760  	19.02973  	-1.18512  	0.03462  	0.84652  	0.85006  	-3.02442  	0.07186  	-0.08575  	-50.15936  	-1.00474  	250.88589  	249.84039  	-16373.36155  	-4829.76081  	0.00536  	0.00002  	0.00423  	0.00466  	0.00788  	0.00000  	0.00000  
82.94811  	22.99043  	10.03584  	10.23779  	19.03166  	-1.18512  	0.03412  	0.84677  	0.84793  	-3.02442  	0.07064  	-0.08568  	-50.12555  	-1.00115  	250.25830  	249.91338  	-16373.59850  	-4829.83450  	0.00536  	0.00003  	0.00423  	0.00466  	0.00788  	0.00000  	0.00000  
83.95145  	22.99065  	10.03448  	10.23816  	19.03328  	-1.18512  	0.03412  	0.84855  	0.85061  	-3.02442  	0.07026  	-0.08568  	-50.10783  	-1.00976  	251.04794  	250.44055  	-16373.96865  	-4829.76853  	0.00536  	0.00003  	0.00422  	0.00466  	0.00788  	0.00000  	0.00000  
84.95477  	22.99040  	10.03505  	10.23829  	19.03519  	-1.18512  	0.03486  	0.85060  	0.85546  	-3.02442  	0.07240  	-0.08570  	-50.08053  	-1.00755  	252.47847  	251.04640  	-16374.30434  	-4829.81490  	0.00537  	0.00003  	0.00423  	0.00467  	0.00789  	0.00000  	0.00000  
85.95606  	22.99030  	10.03657  	10.23845  	19.03677  	-1.18512  	0.03448  	0.85255  	0.85520  	-3.02442  	0.07143  	-0.08572  	-50.05925  	-1.00085  	252.40280  	251.62060  	-16374.60032  	-4829.92630  	0.00537  	0.00003  	0.00423  	0.00466  	0.00790  	0.00000  	0.00000  
86.95941  	22.99092  	10.03526  	10.23829  	19.03797  	-1.18512  	0.03393  	0.85495  	0.85893  	-3.02442  	0.07087  	-0.08573  	-50.05188  	-1.00651  	253.50508  	252.32801  	-16374.96767  	-4829.82888  	0.00537  	0.00003  	0.00423  	0.00465  	0.00791  	0.00000  	0.00000  
87.96269  	22.99027  	10.03579  	10.23865  	19.04026  	-1.18512  	0.03458  	0.85648  	0.86185  	-3.02442  	0.07121  	-0.08576  	-50.01464  	-1.00569  	254.36591  	252.78199  	-16375.29797  	-4829.88843  	0.00538  	0.00002  	0.00423  	0.00466  	0.00792  	0.00000  	0.00000  
88.96402  	22.99090  	10.03590  	10.23923  	19.04214  	-1.18512  	0.03380  	0.85857  	0.86761  	-3.02442  	0.07200  	-0.08567  	-49.99880  	-1.00802  	256.06422  	253.39825  	-16375.80153  	-4829.93443  	0.00539  	0.00003  	0.00423  	0.00465  	0.00793  	0.00000  	0.00000  
89.96733  	22.99091  	10.03539  	10.23843  	19.04456  	-1.18512  	0.03444  	0.86194  	0.86491  	-3.02442  	0.07084  	-0.08571  	-49.96831  	-1.00659  	255.26866  	254.39265  	-16376.29034  	-4829.84650  	0.00538  	0.00003  	0.00423  	0.00466  	0.00795  	0.00000  	0.00000  
90.97065  	22.99182  	10.03538  	10.23882  	19.04655  	-1.18512  	0.03446  	0.86280  	0.87102  	-3.02442  	0.07112  	-0.08571  	-49.95450  	-1.00857  	257.07218  	254.64644  	-16376.87397  	-4829.87253  	0.00539  	0.00003  	0.00423  	0.00466  	0.00795  	0.00000  	0.00000  
91.97200  	22.99186  	10.03527  	10.23885  	19.04810  	-1.18512  	0.03553  	0.86515  	0.87044  	-3.02442  	0.07005  	-0.08572  	-49.93546  	-1.00928  	256.90064  	255.33959  	-16377.19260  	-4829.86686  	0.00539  	0.00003  	0.00422  	0.00468  	0.00796  	0.00000  	0.00000  
92.97531  	22.99148  	10.03597  	10.23849  	19.05154  	-1.18512  	0.03491  	0.86665  	0.86986  	-3.02442  	0.07005  	-0.08575  	-49.88704  	-1.00402  	256.73085  	255.78355  	-16377.80943  	-4829.88938  	0.00539  	0.00002  	0.00422  	0.00467  	0.00797  	0.00000  	0.00000  
93.97863  	22.99040  	10.03531  	10.23828  	19.05426  	-1.18512  	0.03498  	0.86910  	0.87415  	-3.02442  	0.07303  	-0.08577  	-49.83902  	-1.00623  	257.99518  	256.50382  	-16378.13748  	-4829.83160  	0.00540  	0.00002  	0.00423  	0.00467  	0.00798  	0.00000  	0.00000  
94.97995  	22.99163  	10.03562  	10.23899  	19.05616  	-1.18512  	0.03482  	0.86850  	0.87527  	-3.02442  	0.07054  	-0.08570  	-49.83047  	-1.00823  	258.32751  	256.32784  	-16378.76905  	-4829.89980  	0.00540  	0.00003  	0.00423  	0.00467  	0.00798  	0.00000  	0.00000  
95.98327  	22.99213  	10.03576  	10.23898  	19.05762  	-1.18512  	0.03450  	0.86408  	0.86946  	-3.02442  	0.07282  	-0.08574  	-49.81827  	-1.00747  	256.61034  	255.02493  	-16379.16278  	-4829.90776  	0.00539  	0.00002  	0.00423  	0.00466  	0.00796  	0.00000  	0.00000  
96.98658  	22.99061  	10.03659  	10.23835  	19.05951  	-1.18512  	0.03570  	0.85632  	0.86293  	-3.02442  	0.07067  	-0.08571  	-49.77513  	-1.00023  	254.68407  	252.73210  	-16379.23729  	-4829.92134  	0.00538  	0.00003  	0.00423  	0.00469  	0.00792  	0.00000  	0.00000  
97.98788  	22.99029  	10.03592  	10.23986  	19.06076  	-1.18512  	0.03465  	0.84857  	0.85407  	-3.02442  	0.06919  	-0.08568  	-49.75525  	-1.01103  	252.06873  	250.44627  	-16379.42373  	-4829.97697  	0.00537  	0.00003  	0.00422  	0.00467  	0.00788  	0.00000  	0.00000  
98.99119  	22.98920  	10.03703  	10.24081  	19.06211  	-1.18512  	0.03459  	0.84143  	0.84750  	-3.02442  	0.07173  	-0.08566  	-49.72446  	-1.01022  	250.12948  	248.33959  	-16379.47768  	-4830.11401  	0.00536  	0.00003  	0.00423  	0.00466  	0.00785  	0.00000  	0.00000  
99.99454  	22.98631  	10.03624  	10.23997  	19.06230  	-1.18512  	0.03492  	0.83390  	0.83531  	-3.02442  	0.07170  	-0.08579  	-49.68546  	-1.01003  	246.53236  	246.11565  	-16378.93455  	-4830.00538  	0.00534  	0.00002  	0.00423  	0.00467  	0.00782  	0.00000  	0.00000  
100.99585  	22.98438  	10.03614  	10.23995  	19.06250  	-1.18512  	0.03244  	0.82607  	0.82664  	-3.02442  	0.07039  	-0.08571  	-49.65844  	-1.01040  	243.97347  	243.80436  	-16378.58666  	-4829.99773  	0.00532  	0.00003  	0.00423  	0.00462  	0.00778  	0.00000  	0.00000  
101.99914  	22.98353  	10.03656  	10.23962  	19.06121  	-1.18512  	0.03285  	0.81634  	0.82246  	-3.02442  	0.07141  	-0.08570  	-49.66393  	-1.00666  	242.73934  	240.93322  	-16378.15486  	-4830.00339  	0.00532  	0.00003  	0.00423  	0.00463  	0.00774  	0.00000  	0.00000  
103.00246  	22.98199  	10.03685  	10.23980  	19.06024  	-1.18512  	0.03312  	0.80937  	0.81239  	-3.02442  	0.07059  	-0.08570  	-49.65688  	-1.00614  	239.76903  	238.87582  	-16377.65020  	-4830.03449  	0.00530  	0.00003  	0.00423  	0.00464  	0.00770  	0.00000  	0.00000  
104.00381  	22.98015  	10.03659  	10.24049  	19.05752  	-1.18512  	0.03211  	0.80109  	0.80279  	-3.02442  	0.07107  	-0.08568  	-49.66799  	-1.01082  	236.93586  	236.43166  	-16376.73340  	-4830.06372  	0.00528  	0.00003  	0.00423  	0.00462  	0.00767  	0.00000  	0.00000  
105.00512  	22.97752  	10.03727  	10.24073  	19.05449  	-1.18512  	0.03159  	0.79208  	0.79333  	-3.02442  	0.06991  	-0.08573  	-49.67295  	-1.00862  	234.14172  	233.77358  	-16375.59358  	-4830.12468  	0.00527  	0.00003  	0.00422  	0.00461  	0.00762  	0.00000  	0.00000  
106.00745  	22.97622  	10.03691  	10.24029  	19.05003  	-1.18512  	0.03190  	0.78746  	0.79061  	-3.02442  	0.07127  	-0.08578  	-49.71298  	-1.00827  	233.33930  	232.41139  	-16374.43605  	-4830.07112  	0.00526  	0.00002  	0.00423  	0.00461  	0.00760  	0.00000  	0.00000  
107.00974  	22.97536  	10.03778  	10.24011  	19.04721  	-1.18512  	0.03261  	0.79167  	0.79321  	-3.02442  	0.07085  	-0.08575  	-49.73778  	-1.00309  	234.10638  	233.65115  	-16373.69508  	-4830.11751  	0.00527  	0.00002  	0.00423  	0.00463  	0.00762  	0.00000  	0.00000  
