10/18/2024 13:06:33Time	T_hot_in(C)	T_cold_in(C)	T_cold_out(C)	T_hot_out(C)	mdot_cold(kg/s)	ASFASIFUAS(kg/s)	Diferencial_cold(bar)	Diferencial_hot(bar)	mdot_hot(kg/s)	ABS_cold(bar)	ABS_hot(bar)	q_cold(kW)	q_hot(kW)	ASFASYFY	Tau_cold_haste	Re_hot	Re_cold	U_global	PSIG_cold(bar)	R_fouling	PSIG_hot(bar)	PSID_hot(bar)	m_dot_hot	PSID_cold(bar)	m_dot_cold
1.74536  	0.00000  	0.00000  	0.00000  	0.00000  	-1.18512  	-0.20833  	-0.86278  	-2.50000  	-3.02442  	-1.25000  	-0.08628  	-0.00000  	-0.00000  	-737.84722  	-254.63905  	-9234.48090  	-3618.55272  	0.00000  	0.00000  	0.00000  	0.00000  	0.00000  	0.00000  	0.00000  
2.74668  	22.92643  	10.12509  	10.29954  	17.28634  	-1.18512  	0.01415  	0.26495  	0.25213  	-3.02442  	0.07172  	-0.08570  	-71.41320  	-0.86487  	74.41255  	78.19582  	-16011.70780  	-4839.87386  	0.00440  	0.00003  	0.00423  	0.00427  	0.00520  	0.00000  	0.00000  
3.75000  	22.92430  	10.12604  	10.29913  	17.28503  	-1.18512  	0.01447  	0.26509  	0.24599  	-3.02442  	0.07224  	-0.08569  	-71.40290  	-0.85812  	72.60124  	78.23909  	-16011.02326  	-4839.90940  	0.00439  	0.00003  	0.00423  	0.00428  	0.00520  	0.00000  	0.00000  
4.75331  	22.92185  	10.12583  	10.29932  	17.28386  	-1.18512  	0.01379  	0.26239  	0.24396  	-3.02442  	0.07151  	-0.08569  	-71.38657  	-0.86007  	72.00340  	77.44178  	-16010.30287  	-4839.90831  	0.00439  	0.00003  	0.00423  	0.00426  	0.00518  	0.00000  	0.00000  
5.75561  	22.92127  	10.12690  	10.30018  	17.28215  	-1.18512  	0.01415  	0.26014  	0.24245  	-3.02442  	0.07143  	-0.08566  	-71.40092  	-0.85905  	71.55550  	76.77666  	-16009.84840  	-4840.03739  	0.00439  	0.00003  	0.00423  	0.00427  	0.00517  	0.00000  	0.00000  
6.75692  	22.92039  	10.12805  	10.30122  	17.27979  	-1.18512  	0.01476  	0.25679  	0.24237  	-3.02442  	0.07278  	-0.08568  	-71.41955  	-0.85854  	71.53320  	75.78872  	-16009.20429  	-4840.18281  	0.00439  	0.00003  	0.00423  	0.00428  	0.00516  	0.00000  	0.00000  
7.75924  	22.91878  	10.12883  	10.30158  	17.27725  	-1.18512  	0.01499  	0.25468  	0.23755  	-3.02442  	0.07278  	-0.08563  	-71.43143  	-0.85641  	70.10997  	75.16654  	-16008.37822  	-4840.25836  	0.00438  	0.00003  	0.00423  	0.00429  	0.00515  	0.00000  	0.00000  
8.76256  	22.91832  	10.12869  	10.30118  	17.27338  	-1.18512  	0.01464  	0.25274  	0.23589  	-3.02442  	0.07065  	-0.08571  	-71.47460  	-0.85516  	69.62030  	74.59261  	-16007.51575  	-4840.22295  	0.00438  	0.00003  	0.00423  	0.00428  	0.00514  	0.00000  	0.00000  
9.76291  	22.91676  	10.12957  	10.30222  	17.27032  	-1.18512  	0.01459  	0.25055  	0.23331  	-3.02442  	0.07195  	-0.08570  	-71.49347  	-0.85595  	68.85920  	73.94781  	-16006.59891  	-4840.35032  	0.00437  	0.00003  	0.00423  	0.00428  	0.00513  	0.00000  	0.00000  
10.76423  	22.91666  	10.13039  	10.30142  	17.26606  	-1.18512  	0.01366  	0.24826  	0.23064  	-3.02442  	0.07131  	-0.08567  	-71.54611  	-0.84787  	68.07024  	73.27225  	-16005.73092  	-4840.35161  	0.00437  	0.00003  	0.00423  	0.00426  	0.00512  	0.00000  	0.00000  
11.76754  	22.91566  	10.13107  	10.30296  	17.26211  	-1.18512  	0.01471  	0.24591  	0.23673  	-3.02442  	0.07129  	-0.08565  	-71.58350  	-0.85215  	69.86824  	72.57794  	-16004.74753  	-4840.49894  	0.00438  	0.00003  	0.00423  	0.00428  	0.00511  	0.00000  	0.00000  
12.76884  	22.91545  	10.13195  	10.30343  	17.25690  	-1.18512  	0.01438  	0.24926  	0.23159  	-3.02442  	0.07055  	-0.08580  	-71.64677  	-0.85011  	68.35219  	73.56712  	-16003.66808  	-4840.58928  	0.00437  	0.00002  	0.00423  	0.00428  	0.00512  	0.00000  	0.00000  
13.77218  	22.91493  	10.13188  	10.30390  	17.25237  	-1.18512  	0.01439  	0.25313  	0.23858  	-3.02442  	0.07113  	-0.08569  	-71.69761  	-0.85281  	70.41401  	74.70992  	-16002.66404  	-4840.61627  	0.00438  	0.00003  	0.00423  	0.00428  	0.00514  	0.00000  	0.00000  
14.77550  	22.91493  	10.13270  	10.30414  	17.24826  	-1.18512  	0.01584  	0.25837  	0.23866  	-3.02442  	0.07225  	-0.08571  	-71.74961  	-0.84994  	70.43874  	76.25365  	-16001.84661  	-4840.68618  	0.00438  	0.00003  	0.00423  	0.00430  	0.00517  	0.00000  	0.00000  
15.77682  	22.91592  	10.13425  	10.30526  	17.24425  	-1.18512  	0.01571  	0.26330  	0.25271  	-3.02442  	0.07184  	-0.08570  	-71.81290  	-0.84782  	74.58411  	77.71056  	-16001.24639  	-4840.86411  	0.00440  	0.00003  	0.00423  	0.00430  	0.00519  	0.00000  	0.00000  
16.78014  	22.91625  	10.13491  	10.30629  	17.24076  	-1.18512  	0.01577  	0.26821  	0.25258  	-3.02442  	0.07112  	-0.08568  	-71.86138  	-0.84961  	74.54663  	79.15774  	-16000.61911  	-4840.97628  	0.00440  	0.00003  	0.00423  	0.00430  	0.00521  	0.00000  	0.00000  
17.78246  	22.91675  	10.13656  	10.30742  	17.23905  	-1.18512  	0.01628  	0.27243  	0.25398  	-3.02442  	0.07110  	-0.08573  	-71.88923  	-0.84710  	74.95844  	80.40546  	-16000.37977  	-4841.16155  	0.00441  	0.00003  	0.00423  	0.00431  	0.00523  	0.00000  	0.00000  
18.78278  	22.91844  	10.13649  	10.30800  	17.23777  	-1.18512  	0.01554  	0.27447  	0.25672  	-3.02442  	0.07228  	-0.08569  	-71.92683  	-0.85027  	75.76763  	81.00773  	-16000.46143  	-4841.19506  	0.00441  	0.00003  	0.00423  	0.00430  	0.00524  	0.00000  	0.00000  
19.78510  	22.91886  	10.13688  	10.30951  	17.23678  	-1.18512  	0.01627  	0.27815  	0.26255  	-3.02442  	0.07175  	-0.08576  	-71.94476  	-0.85585  	77.48862  	82.09276  	-16000.34638  	-4841.32219  	0.00442  	0.00002  	0.00423  	0.00431  	0.00526  	0.00000  	0.00000  
20.78742  	22.91982  	10.13745  	10.30906  	17.23810  	-1.18512  	0.01577  	0.28164  	0.26401  	-3.02442  	0.07231  	-0.08576  	-71.94014  	-0.85078  	77.91854  	83.12200  	-16000.79789  	-4841.32971  	0.00442  	0.00002  	0.00423  	0.00430  	0.00527  	0.00000  	0.00000  
21.78875  	22.92099  	10.13740  	10.31048  	17.23820  	-1.18512  	0.01427  	0.28401  	0.27209  	-3.02442  	0.07093  	-0.08564  	-71.95359  	-0.85804  	80.30505  	83.82312  	-16001.05188  	-4841.42132  	0.00444  	0.00003  	0.00423  	0.00427  	0.00528  	0.00000  	0.00000  
22.79106  	22.92096  	10.13800  	10.31126  	17.24101  	-1.18512  	0.01452  	0.28643  	0.27115  	-3.02442  	0.07010  	-0.08570  	-71.91780  	-0.85897  	80.02696  	84.53598  	-16001.60457  	-4841.51318  	0.00443  	0.00003  	0.00422  	0.00428  	0.00529  	0.00000  	0.00000  
23.79438  	22.92121  	10.13826  	10.31162  	17.24332  	-1.18512  	0.01581  	0.28804  	0.27010  	-3.02442  	0.07187  	-0.08576  	-71.89158  	-0.85944  	79.71796  	85.01245  	-16002.11493  	-4841.55427  	0.00443  	0.00002  	0.00423  	0.00430  	0.00530  	0.00000  	0.00000  
24.79570  	22.92088  	10.13897  	10.31298  	17.24776  	-1.18512  	0.01550  	0.28981  	0.27677  	-3.02442  	0.07035  	-0.08569  	-71.83129  	-0.86266  	81.68576  	85.53501  	-16002.93066  	-4841.69227  	0.00444  	0.00003  	0.00423  	0.00430  	0.00531  	0.00000  	0.00000  
25.79901  	22.92097  	10.14001  	10.31369  	17.25096  	-1.18512  	0.01687  	0.28868  	0.26947  	-3.02442  	0.07073  	-0.08568  	-71.79182  	-0.86108  	79.53226  	85.19935  	-16003.58579  	-4841.80832  	0.00443  	0.00003  	0.00423  	0.00432  	0.00531  	0.00000  	0.00000  
26.80130  	22.91979  	10.14041  	10.31442  	17.25458  	-1.18512  	0.01642  	0.28618  	0.27365  	-3.02442  	0.07268  	-0.08570  	-71.73101  	-0.86270  	80.76537  	84.46418  	-16004.07018  	-4841.88362  	0.00444  	0.00003  	0.00423  	0.00432  	0.00529  	0.00000  	0.00000  
27.80265  	22.91833  	10.14099  	10.31460  	17.25892  	-1.18512  	0.01614  	0.28475  	0.26911  	-3.02442  	0.07165  	-0.08571  	-71.65752  	-0.86069  	79.42462  	84.04107  	-16004.64344  	-4841.93479  	0.00443  	0.00003  	0.00423  	0.00431  	0.00529  	0.00000  	0.00000  
28.80398  	22.91729  	10.14130  	10.31640  	17.26366  	-1.18512  	0.01533  	0.28364  	0.27183  	-3.02442  	0.07138  	-0.08567  	-71.58442  	-0.86808  	80.22891  	83.71189  	-16005.37865  	-4842.07519  	0.00443  	0.00003  	0.00423  	0.00429  	0.00528  	0.00000  	0.00000  
29.80530  	22.91613  	10.14178  	10.31548  	17.26644  	-1.18512  	0.01593  	0.28183  	0.26501  	-3.02442  	0.07128  	-0.08570  	-71.53453  	-0.86111  	78.21465  	83.17904  	-16005.70213  	-4842.04515  	0.00442  	0.00003  	0.00423  	0.00431  	0.00527  	0.00000  	0.00000  
30.80762  	22.91484  	10.14288  	10.31750  	17.26994  	-1.18512  	0.01563  	0.27946  	0.26145  	-3.02442  	0.07197  	-0.08575  	-71.47382  	-0.86567  	77.16417  	82.48056  	-16006.14152  	-4842.25317  	0.00442  	0.00002  	0.00423  	0.00430  	0.00526  	0.00000  	0.00000  
31.80894  	22.91276  	10.14339  	10.31829  	17.27242  	-1.18512  	0.01533  	0.27633  	0.26497  	-3.02442  	0.07215  	-0.08571  	-71.41601  	-0.86706  	78.20178  	81.55499  	-16006.22040  	-4842.33958  	0.00442  	0.00003  	0.00423  	0.00429  	0.00525  	0.00000  	0.00000  
32.81226  	22.91187  	10.14421  	10.31862  	17.27533  	-1.18512  	0.01553  	0.27460  	0.25603  	-3.02442  	0.07122  	-0.08567  	-71.36791  	-0.86467  	75.56357  	81.04562  	-16006.62175  	-4842.41629  	0.00441  	0.00003  	0.00423  	0.00430  	0.00524  	0.00000  	0.00000  
33.81557  	22.90950  	10.14437  	10.31871  	17.27772  	-1.18512  	0.01673  	0.27154  	0.25275  	-3.02442  	0.07157  	-0.08569  	-71.30779  	-0.86428  	74.59703  	80.14308  	-16006.62562  	-4842.43250  	0.00440  	0.00003  	0.00423  	0.00432  	0.00523  	0.00000  	0.00000  
34.81689  	22.90866  	10.14530  	10.31932  	17.27815  	-1.18512  	0.01596  	0.26842  	0.25551  	-3.02442  	0.07230  	-0.08574  	-71.29172  	-0.86273  	75.41067  	79.22066  	-16006.54430  	-4842.53486  	0.00441  	0.00003  	0.00423  	0.00431  	0.00521  	0.00000  	0.00000  
35.82018  	22.90626  	10.14585  	10.31924  	17.27886  	-1.18512  	0.01575  	0.26691  	0.25181  	-3.02442  	0.07163  	-0.08578  	-71.25223  	-0.85957  	74.31882  	78.77485  	-16006.20691  	-4842.56629  	0.00440  	0.00002  	0.00423  	0.00430  	0.00520  	0.00000  	0.00000  
36.82352  	22.90535  	10.14595  	10.32009  	17.27934  	-1.18512  	0.01445  	0.26547  	0.25112  	-3.02442  	0.07052  	-0.08565  	-71.23458  	-0.86336  	74.11584  	78.35135  	-16006.12186  	-4842.62965  	0.00440  	0.00003  	0.00423  	0.00428  	0.00520  	0.00000  	0.00000  
37.82484  	22.90370  	10.14668  	10.32034  	17.27815  	-1.18512  	0.01459  	0.26289  	0.24698  	-3.02442  	0.07205  	-0.08569  	-71.22884  	-0.86092  	72.89281  	77.58973  	-16005.55774  	-4842.69474  	0.00440  	0.00003  	0.00423  	0.00428  	0.00519  	0.00000  	0.00000  
38.82816  	22.90252  	10.14685  	10.32019  	17.27764  	-1.18512  	0.01481  	0.26098  	0.24440  	-3.02442  	0.07094  	-0.08571  	-71.22039  	-0.85937  	72.13081  	77.02563  	-16005.22138  	-4842.69665  	0.00439  	0.00003  	0.00423  	0.00428  	0.00518  	0.00000  	0.00000  
39.83148  	22.90196  	10.14718  	10.32079  	17.27596  	-1.18512  	0.01546  	0.25851  	0.24250  	-3.02442  	0.07007  	-0.08567  	-71.23453  	-0.86072  	71.57264  	76.29493  	-16004.77630  	-4842.75816  	0.00439  	0.00003  	0.00422  	0.00430  	0.00517  	0.00000  	0.00000  
40.83180  	22.89998  	10.14708  	10.32112  	17.27419  	-1.18512  	0.01616  	0.25641  	0.24035  	-3.02442  	0.07174  	-0.08568  	-71.23192  	-0.86284  	70.93616  	75.67579  	-16004.03056  	-4842.77303  	0.00438  	0.00003  	0.00423  	0.00431  	0.00516  	0.00000  	0.00000  
41.83412  	22.90007  	10.14816  	10.32125  	17.27094  	-1.18512  	0.01461  	0.25360  	0.24012  	-3.02442  	0.07121  	-0.08570  	-71.27408  	-0.85811  	70.87017  	74.84680  	-16003.40115  	-4842.85423  	0.00438  	0.00003  	0.00423  	0.00428  	0.00514  	0.00000  	0.00000  
42.83741  	22.89937  	10.14888  	10.32157  	17.26817  	-1.18512  	0.01427  	0.25125  	0.24012  	-3.02442  	0.07077  	-0.08570  	-71.30028  	-0.85615  	70.86805  	74.15465  	-16002.71406  	-4842.92308  	0.00438  	0.00003  	0.00423  	0.00427  	0.00513  	0.00000  	0.00000  
43.83873  	22.89836  	10.15008  	10.32226  	17.26422  	-1.18512  	0.01452  	0.24958  	0.23463  	-3.02442  	0.07130  	-0.08564  	-71.33752  	-0.85362  	69.24799  	73.65974  	-16001.72543  	-4843.04888  	0.00438  	0.00003  	0.00423  	0.00428  	0.00513  	0.00000  	0.00000  
44.84207  	22.89748  	10.14954  	10.32208  	17.26060  	-1.18512  	0.01569  	0.24782  	0.23365  	-3.02442  	0.07124  	-0.08571  	-71.37218  	-0.85541  	68.95822  	73.14213  	-16000.83072  	-4843.00137  	0.00437  	0.00003  	0.00423  	0.00430  	0.00512  	0.00000  	0.00000  
45.84439  	22.89713  	10.15076  	10.32218  	17.25646  	-1.18512  	0.01564  	0.24642  	0.23198  	-3.02442  	0.07039  	-0.08569  	-71.42014  	-0.84987  	68.46614  	72.72960  	-15999.93832  	-4843.08892  	0.00437  	0.00003  	0.00423  	0.00430  	0.00511  	0.00000  	0.00000  
46.84571  	22.89683  	10.14993  	10.32230  	17.25246  	-1.18512  	0.01532  	0.24850  	0.23828  	-3.02442  	0.07152  	-0.08568  	-71.46695  	-0.85452  	70.32604  	73.34345  	-15999.08434  	-4843.04196  	0.00438  	0.00003  	0.00423  	0.00429  	0.00512  	0.00000  	0.00000  
47.84801  	22.89750  	10.15101  	10.32275  	17.24817  	-1.18512  	0.01518  	0.25300  	0.23649  	-3.02442  	0.07188  	-0.08567  	-71.52980  	-0.85142  	69.79763  	74.67105  	-15998.36519  	-4843.14374  	0.00438  	0.00003  	0.00423  	0.00429  	0.00514  	0.00000  	0.00000  
48.85135  	22.89758  	10.15208  	10.32243  	17.24399  	-1.18512  	0.01546  	0.25840  	0.23990  	-3.02442  	0.07323  	-0.08571  	-71.58385  	-0.84454  	70.80508  	76.26262  	-15997.54894  	-4843.19389  	0.00438  	0.00003  	0.00423  	0.00430  	0.00517  	0.00000  	0.00000  
49.85267  	22.89831  	10.15088  	10.32367  	17.24074  	-1.18512  	0.01529  	0.26127  	0.25022  	-3.02442  	0.07068  	-0.08566  	-71.63421  	-0.85660  	73.85102  	77.10994  	-15997.04720  	-4843.19608  	0.00440  	0.00003  	0.00423  	0.00429  	0.00518  	0.00000  	0.00000  
50.85399  	22.89853  	10.15107  	10.32199  	17.23715  	-1.18512  	0.01529  	0.26663  	0.25012  	-3.02442  	0.07061  	-0.08570  	-71.68235  	-0.84736  	73.82136  	78.69236  	-15996.37744  	-4843.09693  	0.00440  	0.00003  	0.00423  	0.00429  	0.00520  	0.00000  	0.00000  
51.85730  	22.90081  	10.15112  	10.32299  	17.23459  	-1.18512  	0.01496  	0.27001  	0.25126  	-3.02442  	0.07030  	-0.08568  	-71.74369  	-0.85207  	74.15548  	79.69039  	-15996.32207  	-4843.16654  	0.00440  	0.00003  	0.00422  	0.00429  	0.00522  	0.00000  	0.00000  
52.85862  	22.90214  	10.15082  	10.32451  	17.23292  	-1.18512  	0.01498  	0.27433  	0.25764  	-3.02442  	0.07313  	-0.08574  	-71.78166  	-0.86109  	76.03821  	80.96655  	-15996.25303  	-4843.24855  	0.00441  	0.00002  	0.00423  	0.00429  	0.00524  	0.00000  	0.00000  
53.85995  	22.90294  	10.15149  	10.32483  	17.23209  	-1.18512  	0.01581  	0.27770  	0.25853  	-3.02442  	0.07158  	-0.08570  	-71.80233  	-0.85935  	76.30293  	81.95879  	-15996.24986  	-4843.31370  	0.00441  	0.00003  	0.00423  	0.00430  	0.00525  	0.00000  	0.00000  
54.86327  	22.90400  	10.15191  	10.32463  	17.23236  	-1.18512  	0.01558  	0.28119  	0.26304  	-3.02442  	0.07139  	-0.08577  	-71.81230  	-0.85629  	77.63203  	82.98876  	-15996.51227  	-4843.32866  	0.00442  	0.00002  	0.00423  	0.00430  	0.00527  	0.00000  	0.00000  
55.86658  	22.90402  	10.15165  	10.32548  	17.23446  	-1.18512  	0.01746  	0.28321  	0.26486  	-3.02442  	0.07160  	-0.08566  	-71.78595  	-0.86182  	78.16985  	83.58580  	-15996.93621  	-4843.36803  	0.00442  	0.00003  	0.00423  	0.00434  	0.00528  	0.00000  	0.00000  
56.86791  	22.90557  	10.15225  	10.32498  	17.23613  	-1.18512  	0.01624  	0.28504  	0.26880  	-3.02442  	0.07193  	-0.08573  	-71.78451  	-0.85635  	79.33447  	84.12721  	-15997.57533  	-4843.37430  	0.00443  	0.00003  	0.00423  	0.00431  	0.00529  	0.00000  	0.00000  
57.87122  	22.90514  	10.15262  	10.32546  	17.23899  	-1.18512  	0.01520  	0.28763  	0.27361  	-3.02442  	0.07178  	-0.08569  	-71.74280  	-0.85685  	80.75296  	84.89177  	-15998.05930  	-4843.43146  	0.00444  	0.00003  	0.00423  	0.00429  	0.00530  	0.00000  	0.00000  
58.87454  	22.90523  	10.15154  	10.32540  	17.24193  	-1.18512  	0.01511  	0.28803  	0.27338  	-3.02442  	0.07332  	-0.08567  	-71.70669  	-0.86189  	80.68474  	85.00921  	-15998.66203  	-4843.35526  	0.00444  	0.00003  	0.00423  	0.00429  	0.00530  	0.00000  	0.00000  
59.87586  	22.90503  	10.15221  	10.32637  	17.24658  	-1.18512  	0.01509  	0.28676  	0.27385  	-3.02442  	0.07115  	-0.08572  	-71.64522  	-0.86343  	80.82421  	84.63258  	-15999.54630  	-4843.46483  	0.00444  	0.00003  	0.00423  	0.00429  	0.00530  	0.00000  	0.00000  
60.87917  	22.90540  	10.15229  	10.32587  	17.25038  	-1.18512  	0.01584  	0.28644  	0.27251  	-3.02442  	0.07133  	-0.08570  	-71.60184  	-0.86056  	80.42705  	84.54000  	-16000.37390  	-4843.43694  	0.00444  	0.00003  	0.00423  	0.00430  	0.00529  	0.00000  	0.00000  
61.88249  	22.90385  	10.15219  	10.32626  	17.25470  	-1.18512  	0.01631  	0.28385  	0.26560  	-3.02442  	0.07288  	-0.08577  	-71.52748  	-0.86293  	78.38960  	83.77442  	-16000.92520  	-4843.45585  	0.00442  	0.00002  	0.00423  	0.00431  	0.00528  	0.00000  	0.00000  
62.88281  	22.90316  	10.15232  	10.32564  	17.25864  	-1.18512  	0.01606  	0.28268  	0.26813  	-3.02442  	0.07147  	-0.08561  	-71.46881  	-0.85927  	79.13692  	83.42882  	-16001.57077  	-4843.42325  	0.00443  	0.00003  	0.00423  	0.00431  	0.00528  	0.00000  	0.00000  
63.88613  	22.90160  	10.15403  	10.32778  	17.26296  	-1.18512  	0.01638  	0.28053  	0.26679  	-3.02442  	0.07247  	-0.08572  	-71.39433  	-0.86138  	78.73990  	82.79495  	-16002.12008  	-4843.67897  	0.00443  	0.00003  	0.00423  	0.00431  	0.00527  	0.00000  	0.00000  
64.88845  	22.90018  	10.15293  	10.32790  	17.26635  	-1.18512  	0.01450  	0.27943  	0.26723  	-3.02442  	0.06986  	-0.08562  	-71.33343  	-0.86745  	78.86872  	82.47020  	-16002.51148  	-4843.61428  	0.00443  	0.00003  	0.00422  	0.00428  	0.00526  	0.00000  	0.00000  
65.88977  	22.89824  	10.15210  	10.32671  	17.26893  	-1.18512  	0.01509  	0.27785  	0.26410  	-3.02442  	0.07299  	-0.08570  	-71.27634  	-0.86564  	77.94498  	82.00317  	-16002.63909  	-4843.48023  	0.00442  	0.00003  	0.00423  	0.00429  	0.00526  	0.00000  	0.00000  
66.89109  	22.89713  	10.15352  	10.32726  	17.27109  	-1.18512  	0.01540  	0.27554  	0.26431  	-3.02442  	0.07222  	-0.08568  	-71.23492  	-0.86136  	78.00908  	81.32302  	-16002.84809  	-4843.61075  	0.00442  	0.00003  	0.00423  	0.00430  	0.00524  	0.00000  	0.00000  
67.89438  	22.89627  	10.15361  	10.32668  	17.27326  	-1.18512  	0.01602  	0.27253  	0.25864  	-3.02442  	0.07225  	-0.08573  	-71.19656  	-0.85799  	76.33534  	80.43483  	-16003.10794  	-4843.57826  	0.00441  	0.00003  	0.00423  	0.00431  	0.00523  	0.00000  	0.00000  
68.89570  	22.89467  	10.15383  	10.32688  	17.27448  	-1.18512  	0.01517  	0.27037  	0.25856  	-3.02442  	0.07262  	-0.08568  	-71.16078  	-0.85788  	76.31222  	79.79785  	-16003.03192  	-4843.60636  	0.00441  	0.00003  	0.00423  	0.00429  	0.00522  	0.00000  	0.00000  
69.89904  	22.89311  	10.15312  	10.32704  	17.27475  	-1.18512  	0.01512  	0.26961  	0.25626  	-3.02442  	0.06997  	-0.08567  	-71.13765  	-0.86223  	75.63327  	79.57104  	-16002.77569  	-4843.56927  	0.00441  	0.00003  	0.00422  	0.00429  	0.00522  	0.00000  	0.00000  
70.90233  	22.89193  	10.15299  	10.32700  	17.27507  	-1.18512  	0.01473  	0.26777  	0.25042  	-3.02442  	0.07177  	-0.08577  	-71.11874  	-0.86268  	73.90890  	79.02854  	-16002.60449  	-4843.55801  	0.00440  	0.00002  	0.00423  	0.00428  	0.00521  	0.00000  	0.00000  
71.90369  	22.89110  	10.15283  	10.32722  	17.27524  	-1.18512  	0.01606  	0.26559  	0.24871  	-3.02442  	0.07223  	-0.08572  	-71.10599  	-0.86455  	73.40499  	78.38732  	-16002.47221  	-4843.56233  	0.00440  	0.00003  	0.00423  	0.00431  	0.00520  	0.00000  	0.00000  
72.90700  	22.88964  	10.15254  	10.32662  	17.27423  	-1.18512  	0.01540  	0.26345  	0.24722  	-3.02442  	0.07028  	-0.08566  	-71.10031  	-0.86304  	72.96490  	77.75329  	-16001.98096  	-4843.50276  	0.00440  	0.00003  	0.00422  	0.00430  	0.00519  	0.00000  	0.00000  
73.91032  	22.88899  	10.15177  	10.32662  	17.27258  	-1.18512  	0.01557  	0.26093  	0.24669  	-3.02442  	0.07208  	-0.08569  	-71.11295  	-0.86684  	72.80794  	77.01053  	-16001.52683  	-4843.45173  	0.00439  	0.00003  	0.00423  	0.00430  	0.00518  	0.00000  	0.00000  
74.91164  	22.88794  	10.15224  	10.32613  	17.27094  	-1.18512  	0.01605  	0.25982  	0.24613  	-3.02442  	0.07039  	-0.08565  	-71.12051  	-0.86206  	72.64360  	76.68404  	-16000.99133  	-4843.45083  	0.00439  	0.00003  	0.00423  	0.00431  	0.00517  	0.00000  	0.00000  
75.91296  	22.88772  	10.15205  	10.32645  	17.26856  	-1.18512  	0.01555  	0.25743  	0.24099  	-3.02442  	0.07077  	-0.08569  	-71.14777  	-0.86461  	71.12607  	75.97731  	-16000.47280  	-4843.45871  	0.00439  	0.00003  	0.00423  	0.00430  	0.00516  	0.00000  	0.00000  
76.91627  	22.88605  	10.15230  	10.32566  	17.26516  	-1.18512  	0.01468  	0.25539  	0.23649  	-3.02442  	0.07047  	-0.08574  	-71.16973  	-0.85946  	69.79711  	75.37481  	-15999.46698  	-4843.42284  	0.00438  	0.00003  	0.00423  	0.00428  	0.00515  	0.00000  	0.00000  
77.91956  	22.88605  	10.15209  	10.32540  	17.26227  	-1.18512  	0.01501  	0.25169  	0.23384  	-3.02442  	0.07179  	-0.08571  	-71.20631  	-0.85921  	69.01611  	74.28417  	-15998.89268  	-4843.39133  	0.00437  	0.00003  	0.00423  	0.00429  	0.00513  	0.00000  	0.00000  
78.92091  	22.88538  	10.15285  	10.32489  	17.25904  	-1.18512  	0.01492  	0.25114  	0.23317  	-3.02442  	0.07292  	-0.08570  	-71.23870  	-0.85290  	68.81898  	74.12183  	-15998.11509  	-4843.40812  	0.00437  	0.00003  	0.00423  	0.00429  	0.00513  	0.00000  	0.00000  
79.92324  	22.88450  	10.15217  	10.32500  	17.25512  	-1.18512  	0.01529  	0.24795  	0.23043  	-3.02442  	0.07054  	-0.08570  	-71.27727  	-0.85685  	68.00968  	73.17967  	-15997.16170  	-4843.37039  	0.00437  	0.00003  	0.00423  	0.00429  	0.00512  	0.00000  	0.00000  
80.92652  	22.88497  	10.15243  	10.32550  	17.25275  	-1.18512  	0.01422  	0.24491  	0.22957  	-3.02442  	0.07354  	-0.08570  	-71.31314  	-0.85799  	67.75462  	72.28382  	-15996.78324  	-4843.42150  	0.00437  	0.00003  	0.00424  	0.00427  	0.00510  	0.00000  	0.00000  
81.92784  	22.88456  	10.15307  	10.32534  	17.24812  	-1.18512  	0.01464  	0.24439  	0.23031  	-3.02442  	0.07108  	-0.08570  	-71.36662  	-0.85405  	67.97215  	72.12845  	-15995.78221  	-4843.45332  	0.00437  	0.00003  	0.00423  	0.00428  	0.00510  	0.00000  	0.00000  
82.92919  	22.88418  	10.15224  	10.32588  	17.24322  	-1.18512  	0.01463  	0.24789  	0.23106  	-3.02442  	0.07056  	-0.08568  	-71.42381  	-0.86083  	68.19402  	73.16240  	-15994.73355  	-4843.43365  	0.00437  	0.00003  	0.00423  	0.00428  	0.00512  	0.00000  	0.00000  
83.93250  	22.88456  	10.15270  	10.32528  	17.23776  	-1.18512  	0.01415  	0.25181  	0.23742  	-3.02442  	0.07091  	-0.08564  	-71.49781  	-0.85558  	70.07066  	74.31986  	-15993.72140  	-4843.42470  	0.00438  	0.00003  	0.00423  	0.00427  	0.00514  	0.00000  	0.00000  
84.93280  	22.88462  	10.15316  	10.32512  	17.23354  	-1.18512  	0.01558  	0.25745  	0.24000  	-3.02442  	0.07205  	-0.08575  	-71.55196  	-0.85255  	70.83243  	75.98432  	-15992.89690  	-4843.44433  	0.00438  	0.00002  	0.00423  	0.00430  	0.00516  	0.00000  	0.00000  
85.93515  	22.88563  	10.15380  	10.32449  	17.23007  	-1.18512  	0.01612  	0.26191  	0.24645  	-3.02442  	0.07014  	-0.08571  	-71.60863  	-0.84618  	72.73770  	77.29881  	-15992.40747  	-4843.44513  	0.00439  	0.00003  	0.00422  	0.00431  	0.00518  	0.00000  	0.00000  
86.93846  	22.88787  	10.15287  	10.32370  	17.22751  	-1.18512  	0.01496  	0.26647  	0.25121  	-3.02442  	0.07186  	-0.08572  	-71.66957  	-0.84688  	74.14323  	78.64428  	-15992.34289  	-4843.33092  	0.00440  	0.00003  	0.00423  	0.00429  	0.00520  	0.00000  	0.00000  
87.93879  	22.88878  	10.15213  	10.32386  	17.22294  	-1.18512  	0.01630  	0.27022  	0.25468  	-3.02442  	0.07170  	-0.08575  	-71.73885  	-0.85140  	75.16607  	79.75335  	-15991.61660  	-4843.29223  	0.00441  	0.00002  	0.00423  	0.00431  	0.00522  	0.00000  	0.00000  
88.94108  	22.89028  	10.15198  	10.32403  	17.22187  	-1.18512  	0.01415  	0.27279  	0.26160  	-3.02442  	0.07224  	-0.08564  	-71.77146  	-0.85295  	77.20712  	80.51239  	-15991.70105  	-4843.29388  	0.00442  	0.00003  	0.00423  	0.00427  	0.00523  	0.00000  	0.00000  
89.94440  	22.89213  	10.15130  	10.32378  	17.22155  	-1.18512  	0.01491  	0.27673  	0.26223  	-3.02442  	0.07114  	-0.08565  	-71.79887  	-0.85509  	77.39289  	81.67238  	-15992.00446  	-4843.23147  	0.00442  	0.00003  	0.00423  	0.00429  	0.00525  	0.00000  	0.00000  
90.94575  	22.89325  	10.15122  	10.32296  	17.22132  	-1.18512  	0.01438  	0.28017  	0.26388  	-3.02442  	0.07060  	-0.08567  	-71.81599  	-0.85144  	77.88251  	82.68977  	-15992.18028  	-4843.17188  	0.00442  	0.00003  	0.00423  	0.00428  	0.00527  	0.00000  	0.00000  
91.94806  	22.89418  	10.15083  	10.32309  	17.22359  	-1.18512  	0.01542  	0.28263  	0.26661  	-3.02442  	0.07251  	-0.08571  	-71.79912  	-0.85400  	78.68778  	83.41621  	-15992.81800  	-4843.15412  	0.00443  	0.00003  	0.00423  	0.00430  	0.00528  	0.00000  	0.00000  
92.95146  	22.89444  	10.15115  	10.32457  	17.22574  	-1.18512  	0.01665  	0.28501  	0.26967  	-3.02442  	0.07106  	-0.08570  	-71.77511  	-0.85973  	79.59151  	84.11637  	-15993.29744  	-4843.27445  	0.00443  	0.00003  	0.00423  	0.00432  	0.00529  	0.00000  	0.00000  
93.95305  	22.89537  	10.15181  	10.32453  	17.22834  	-1.18512  	0.01724  	0.28726  	0.27124  	-3.02442  	0.07158  	-0.08569  	-71.75396  	-0.85628  	80.05466  	84.78030  	-15993.99732  	-4843.31509  	0.00443  	0.00003  	0.00423  	0.00433  	0.00530  	0.00000  	0.00000  
94.95640  	22.89555  	10.15086  	10.32536  	17.23119  	-1.18512  	0.01497  	0.28888  	0.27908  	-3.02442  	0.07117  	-0.08563  	-71.72011  	-0.86511  	82.36718  	85.25975  	-15994.60210  	-4843.30766  	0.00445  	0.00003  	0.00423  	0.00429  	0.00531  	0.00000  	0.00000  
95.95769  	22.89566  	10.15083  	10.32438  	17.23633  	-1.18512  	0.01483  	0.28857  	0.27412  	-3.02442  	0.07026  	-0.08568  	-71.65642  	-0.86039  	80.90291  	85.16744  	-15995.64337  	-4843.24049  	0.00444  	0.00003  	0.00422  	0.00428  	0.00530  	0.00000  	0.00000  
96.96104  	22.89581  	10.14986  	10.32415  	17.24021  	-1.18512  	0.01506  	0.28719  	0.27067  	-3.02442  	0.07089  	-0.08569  	-71.60919  	-0.86404  	79.88605  	84.76034  	-15996.44520  	-4843.16022  	0.00443  	0.00003  	0.00423  	0.00429  	0.00530  	0.00000  	0.00000  
97.96435  	22.89469  	10.15044  	10.32463  	17.24422  	-1.18512  	0.01577  	0.28542  	0.26910  	-3.02442  	0.07092  	-0.08571  	-71.54427  	-0.86359  	79.42303  	84.23942  	-15997.01981  	-4843.23068  	0.00443  	0.00003  	0.00423  	0.00430  	0.00529  	0.00000  	0.00000  
98.96567  	22.89433  	10.14995  	10.32492  	17.24881  	-1.18512  	0.01633  	0.28399  	0.26780  	-3.02442  	0.07102  	-0.08570  	-71.48151  	-0.86744  	79.03966  	83.81539  	-15997.86131  	-4843.21788  	0.00443  	0.00003  	0.00423  	0.00431  	0.00528  	0.00000  	0.00000  
99.96799  	22.89264  	10.15006  	10.32533  	17.25304  	-1.18512  	0.01505  	0.28238  	0.26670  	-3.02442  	0.07202  	-0.08572  	-71.40652  	-0.86891  	78.71225  	83.34029  	-15998.36646  	-4843.25220  	0.00443  	0.00003  	0.00423  	0.00429  	0.00528  	0.00000  	0.00000  
100.97130  	22.89115  	10.15020  	10.32488  	17.25593  	-1.18512  	0.01530  	0.28089  	0.26708  	-3.02442  	0.07086  	-0.08573  	-71.35125  	-0.86600  	78.82655  	82.90011  	-15998.64503  	-4843.23167  	0.00443  	0.00003  	0.00423  	0.00429  	0.00527  	0.00000  	0.00000  
101.97363  	22.88952  	10.15036  	10.32449  	17.25972  	-1.18512  	0.01622  	0.27899  	0.26646  	-3.02442  	0.07211  	-0.08570  	-71.28255  	-0.86327  	78.64211  	82.34162  	-15999.07360  	-4843.21571  	0.00443  	0.00003  	0.00423  	0.00431  	0.00526  	0.00000  	0.00000  
102.97292  	22.88910  	10.14943  	10.32496  	17.26199  	-1.18512  	0.01669  	0.27620  	0.26193  	-3.02442  	0.07101  	-0.08571  	-71.24854  	-0.87017  	77.30602  	81.51616  	-15999.44109  	-4843.18549  	0.00442  	0.00003  	0.00423  	0.00432  	0.00525  	0.00000  	0.00000  
103.97527  	22.88702  	10.15037  	10.32435  	17.26476  	-1.18512  	0.01526  	0.27526  	0.26215  	-3.02442  	0.07258  	-0.08570  	-71.18702  	-0.86253  	77.37163  	81.24081  	-15999.57784  	-4843.20743  	0.00442  	0.00003  	0.00423  	0.00429  	0.00524  	0.00000  	0.00000  
104.97859  	22.88681  	10.14979  	10.32418  	17.26664  	-1.18512  	0.01512  	0.27337  	0.25784  	-3.02442  	0.07103  	-0.08576  	-71.16065  	-0.86455  	76.09885  	80.68302  	-15999.91230  	-4843.15790  	0.00441  	0.00002  	0.00423  	0.00429  	0.00523  	0.00000  	0.00000  
105.97991  	22.88590  	10.14976  	10.32345  	17.26848  	-1.18512  	0.01482  	0.27078  	0.25937  	-3.02442  	0.07178  	-0.08560  	-71.12582  	-0.86109  	76.54979  	79.91814  	-16000.09512  	-4843.10757  	0.00441  	0.00003  	0.00423  	0.00428  	0.00522  	0.00000  	0.00000  
106.98223  	22.88427  	10.14912  	10.32338  	17.26909  	-1.18512  	0.01532  	0.26924  	0.25272  	-3.02442  	0.07076  	-0.08571  	-71.09736  	-0.86391  	74.58737  	79.46186  	-15999.89323  	-4843.06000  	0.00440  	0.00003  	0.00423  	0.00429  	0.00522  	0.00000  	0.00000  
107.98555  	22.88346  	10.14964  	10.32224  	17.26943  	-1.18512  	0.01474  	0.26657  	0.25373  	-3.02442  	0.07096  	-0.08565  	-71.08288  	-0.85569  	74.88441  	78.67664  	-15999.79997  	-4843.01879  	0.00441  	0.00003  	0.00423  	0.00428  	0.00520  	0.00000  	0.00000  
108.98684  	22.88260  	10.14888  	10.32318  	17.26856  	-1.18512  	0.01647  	0.26480  	0.24942  	-3.02442  	0.07122  	-0.08569  	-71.08305  	-0.86412  	73.61485  	78.15380  	-15999.45522  	-4843.03004  	0.00440  	0.00003  	0.00423  	0.00432  	0.00520  	0.00000  	0.00000  
109.99015  	22.88120  	10.14886  	10.32186  	17.26704  	-1.18512  	0.01472  	0.26249  	0.24761  	-3.02442  	0.07121  	-0.08569  	-71.08459  	-0.85766  	73.07955  	77.47230  	-15998.87495  	-4842.94128  	0.00440  	0.00003  	0.00423  	0.00428  	0.00518  	0.00000  	0.00000  
110.99250  	22.87920  	10.14923  	10.32153  	17.26598  	-1.18512  	0.01591  	0.26129  	0.24447  	-3.02442  	0.07036  	-0.08572  	-71.07272  	-0.85418  	72.15265  	77.11609  	-15998.26615  	-4842.94357  	0.00439  	0.00003  	0.00423  	0.00431  	0.00518  	0.00000  	0.00000  
111.99382  	22.87935  	10.14916  	10.32137  	17.26455  	-1.18512  	0.01541  	0.25877  	0.24429  	-3.02442  	0.07097  	-0.08568  	-71.09265  	-0.85373  	72.10010  	76.37320  	-15998.01083  	-4842.92897  	0.00439  	0.00003  	0.00423  	0.00430  	0.00517  	0.00000  	0.00000  
112.99713  	22.87914  	10.14872  	10.32134  	17.26219  	-1.18512  	0.01386  	0.25632  	0.24061  	-3.02442  	0.07136  	-0.08567  	-71.11987  	-0.85580  	71.01279  	75.65127  	-15997.50142  	-4842.89745  	0.00438  	0.00003  	0.00423  	0.00427  	0.00516  	0.00000  	0.00000  
114.00042  	22.87917  	10.14838  	10.32087  	17.26022  	-1.18512  	0.01548  	0.25462  	0.23899  	-3.02442  	0.07325  	-0.08571  	-71.14517  	-0.85513  	70.53528  	75.14686  	-15997.11486  	-4842.84399  	0.00438  	0.00003  	0.00423  	0.00430  	0.00515  	0.00000  	0.00000  
115.00078  	22.87760  	10.14815  	10.31968  	17.25625  	-1.18512  	0.01400  	0.25307  	0.23805  	-3.02442  	0.07123  	-0.08573  	-71.17557  	-0.85037  	70.25801  	74.69048  	-15996.01427  	-4842.74845  	0.00438  	0.00003  	0.00423  	0.00427  	0.00514  	0.00000  	0.00000  
