10/14/2024 15:56:07Time	T_hot_in(C)	T_cold_in(C)	T_cold_out(C)	T_hot_out(C)	mdot_cold(kg/s)	ASFASIFUAS(kg/s)	Diferencial_cold(bar)	Diferencial_hot(bar)	mdot_hot(kg/s)	ABS_cold(bar)	ABS_hot(bar)	q_cold(kW)	q_hot(kW)	ASFASYFY	Tau_cold_haste	Re_hot	Re_cold	U_global	PSIG_cold(bar)	R_fouling	PSIG_hot(bar)	PSID_hot(bar)	m_dot_hot	PSID_cold(bar)	m_dot_cold
1.74832  	0.00000  	0.00000  	0.00000  	0.00000  	-1.18512  	-0.20833  	-0.86278  	-2.50000  	-3.02442  	-1.25000  	-0.08628  	-0.00000  	-0.00000  	-737.84722  	-254.63905  	-9234.48090  	-3618.55272  	0.00000  	0.00000  	0.00000  	0.00000  	0.00000  	0.00000  	0.00000  
2.75164  	22.87853  	10.34232  	10.56361  	19.24973  	-1.18512  	0.05407  	1.46918  	1.50819  	-3.02442  	0.06796  	-0.08566  	-45.94475  	-1.09703  	445.12638  	433.61311  	-16394.95921  	-4871.97198  	0.00641  	0.00003  	0.00422  	0.00504  	0.01074  	0.00000  	0.00000  
3.75495  	22.88171  	10.34115  	10.56386  	19.25203  	-1.18512  	0.05329  	1.46926  	1.50763  	-3.02442  	0.06558  	-0.08566  	-45.95573  	-1.10414  	444.96086  	433.63639  	-16396.06237  	-4871.91048  	0.00641  	0.00003  	0.00421  	0.00502  	0.01074  	0.00000  	0.00000  
4.75628  	22.88524  	10.34228  	10.56178  	19.25349  	-1.18512  	0.05217  	1.46811  	1.50434  	-3.02442  	0.06760  	-0.08572  	-45.98213  	-1.08817  	443.99033  	433.29652  	-16397.06595  	-4871.84715  	0.00641  	0.00003  	0.00422  	0.00500  	0.01074  	0.00000  	0.00000  
5.75859  	22.88804  	10.34203  	10.56244  	19.25669  	-1.18512  	0.05153  	1.46649  	1.50727  	-3.02442  	0.06698  	-0.08569  	-45.97697  	-1.09273  	444.85347  	432.81886  	-16398.27456  	-4871.87449  	0.00641  	0.00003  	0.00421  	0.00499  	0.01073  	0.00000  	0.00000  
6.76191  	22.89066  	10.34197  	10.56310  	19.25898  	-1.18512  	0.05341  	1.46404  	1.50438  	-3.02442  	0.06981  	-0.08567  	-45.98116  	-1.09627  	444.00232  	432.09413  	-16399.26440  	-4871.91415  	0.00641  	0.00003  	0.00422  	0.00503  	0.01072  	0.00000  	0.00000  
7.76323  	22.89353  	10.34202  	10.56348  	19.26185  	-1.18512  	0.05398  	1.45980  	1.50044  	-3.02442  	0.06819  	-0.08565  	-45.98123  	-1.09791  	442.83898  	430.84343  	-16400.41851  	-4871.94302  	0.00640  	0.00003  	0.00422  	0.00504  	0.01070  	0.00000  	0.00000  
8.76658  	22.89597  	10.34206  	10.56255  	19.26486  	-1.18512  	0.05393  	1.45870  	1.49941  	-3.02442  	0.06935  	-0.08571  	-45.97392  	-1.09310  	442.53379  	430.51788  	-16401.51407  	-4871.88374  	0.00640  	0.00003  	0.00422  	0.00504  	0.01070  	0.00000  	0.00000  
9.76989  	22.89822  	10.34224  	10.56329  	19.26670  	-1.18512  	0.05180  	1.45656  	1.49487  	-3.02442  	0.06924  	-0.08567  	-45.97917  	-1.09584  	441.19543  	429.88757  	-16402.33789  	-4871.94524  	0.00639  	0.00003  	0.00422  	0.00499  	0.01069  	0.00000  	0.00000  
10.77118  	22.90140  	10.34222  	10.56288  	19.26923  	-1.18512  	0.04983  	1.45503  	1.49727  	-3.02442  	0.06956  	-0.08565  	-45.98732  	-1.09394  	441.90289  	429.43563  	-16403.48740  	-4871.91643  	0.00640  	0.00003  	0.00422  	0.00496  	0.01068  	0.00000  	0.00000  
11.77350  	22.90505  	10.34212  	10.56152  	19.27220  	-1.18512  	0.05112  	1.45351  	1.49391  	-3.02442  	0.06744  	-0.08569  	-45.99595  	-1.08770  	440.91131  	428.98688  	-16404.81946  	-4871.81899  	0.00639  	0.00003  	0.00422  	0.00498  	0.01067  	0.00000  	0.00000  
12.77682  	22.90849  	10.34121  	10.56173  	19.27550  	-1.18512  	0.04968  	1.45383  	1.49387  	-3.02442  	0.06806  	-0.08568  	-45.99781  	-1.09323  	440.90023  	429.08303  	-16406.17649  	-4871.77196  	0.00639  	0.00003  	0.00422  	0.00495  	0.01067  	0.00000  	0.00000  
13.77814  	22.91072  	10.34123  	10.56115  	19.27837  	-1.18512  	0.05075  	1.45234  	1.49070  	-3.02442  	0.06841  	-0.08570  	-45.98962  	-1.09028  	439.96272  	428.64168  	-16407.20502  	-4871.73451  	0.00639  	0.00003  	0.00422  	0.00497  	0.01067  	0.00000  	0.00000  
14.77946  	22.91430  	10.34070  	10.56147  	19.28053  	-1.18512  	0.05364  	1.45112  	1.48817  	-3.02442  	0.06724  	-0.08565  	-46.00767  	-1.09447  	439.21631  	428.28116  	-16408.36066  	-4871.72010  	0.00638  	0.00003  	0.00422  	0.00503  	0.01066  	0.00000  	0.00000  
15.78278  	22.91634  	10.33912  	10.56107  	19.28291  	-1.18512  	0.05097  	1.44784  	1.48383  	-3.02442  	0.06999  	-0.08563  	-46.00332  	-1.10035  	437.93588  	427.31305  	-16409.24973  	-4871.58813  	0.00637  	0.00003  	0.00422  	0.00498  	0.01065  	0.00000  	0.00000  
16.78609  	22.92079  	10.33969  	10.56120  	19.28623  	-1.18512  	0.05157  	1.44497  	1.48409  	-3.02442  	0.06817  	-0.08561  	-46.01765  	-1.09819  	438.01341  	426.46768  	-16410.81271  	-4871.63511  	0.00637  	0.00003  	0.00422  	0.00499  	0.01063  	0.00000  	0.00000  
17.78742  	22.92428  	10.33980  	10.56154  	19.28853  	-1.18512  	0.05129  	1.44507  	1.48519  	-3.02442  	0.06789  	-0.08559  	-46.03274  	-1.09927  	438.33695  	426.49523  	-16411.97846  	-4871.66537  	0.00638  	0.00003  	0.00422  	0.00498  	0.01063  	0.00000  	0.00000  
18.79073  	22.92678  	10.33958  	10.56070  	19.29105  	-1.18512  	0.05365  	1.44564  	1.48020  	-3.02442  	0.06852  	-0.08570  	-46.03245  	-1.09622  	436.86556  	426.66585  	-16412.98932  	-4871.59482  	0.00637  	0.00003  	0.00422  	0.00503  	0.01064  	0.00000  	0.00000  
19.79305  	22.93009  	10.33848  	10.56038  	19.29503  	-1.18512  	0.05251  	1.44602  	1.48268  	-3.02442  	0.06661  	-0.08566  	-46.02398  	-1.10008  	437.59674  	426.77799  	-16414.45887  	-4871.49930  	0.00637  	0.00003  	0.00421  	0.00501  	0.01064  	0.00000  	0.00000  
20.79437  	22.93339  	10.33731  	10.56021  	19.29838  	-1.18512  	0.05249  	1.44557  	1.48395  	-3.02442  	0.06953  	-0.08573  	-46.02330  	-1.10504  	437.96998  	426.64503  	-16415.79648  	-4871.40954  	0.00637  	0.00003  	0.00422  	0.00501  	0.01064  	0.00000  	0.00000  
21.79671  	22.93711  	10.33704  	10.55901  	19.30167  	-1.18512  	0.05155  	1.44542  	1.47967  	-3.02442  	0.06838  	-0.08570  	-46.02889  	-1.10043  	436.70784  	426.59962  	-16417.20973  	-4871.31135  	0.00637  	0.00003  	0.00422  	0.00499  	0.01063  	0.00000  	0.00000  
22.80001  	22.94129  	10.33657  	10.55847  	19.30528  	-1.18512  	0.05061  	1.44415  	1.48634  	-3.02442  	0.06825  	-0.08566  	-46.03608  	-1.10006  	438.67649  	426.22589  	-16418.77880  	-4871.24418  	0.00638  	0.00003  	0.00422  	0.00497  	0.01063  	0.00000  	0.00000  
23.80036  	22.94638  	10.33671  	10.55809  	19.30824  	-1.18512  	0.05330  	1.44505  	1.48450  	-3.02442  	0.06964  	-0.08566  	-46.06294  	-1.09751  	438.13418  	426.49039  	-16420.40002  	-4871.22743  	0.00638  	0.00003  	0.00422  	0.00502  	0.01063  	0.00000  	0.00000  
24.80368  	22.94994  	10.33487  	10.55842  	19.31153  	-1.18512  	0.05312  	1.44372  	1.48161  	-3.02442  	0.06774  	-0.08564  	-46.06648  	-1.10826  	437.27959  	426.09853  	-16421.77799  	-4871.12773  	0.00637  	0.00003  	0.00422  	0.00502  	0.01063  	0.00000  	0.00000  
25.80700  	22.95415  	10.33498  	10.55756  	19.31472  	-1.18512  	0.05141  	1.44388  	1.48371  	-3.02442  	0.06797  	-0.08564  	-46.07945  	-1.10344  	437.90189  	426.14639  	-16423.26927  	-4871.07677  	0.00637  	0.00003  	0.00422  	0.00499  	0.01063  	0.00000  	0.00000  
26.80828  	22.95813  	10.33399  	10.55712  	19.31729  	-1.18512  	0.05179  	1.44555  	1.48075  	-3.02442  	0.06838  	-0.08568  	-46.09712  	-1.10614  	437.02761  	426.63764  	-16424.58879  	-4870.98131  	0.00637  	0.00003  	0.00422  	0.00499  	0.01064  	0.00000  	0.00000  
27.81060  	22.96208  	10.33306  	10.55605  	19.32115  	-1.18512  	0.05150  	1.44375  	1.48012  	-3.02442  	0.06869  	-0.08568  	-46.09836  	-1.10546  	436.84027  	426.10761  	-16426.16123  	-4870.84742  	0.00637  	0.00003  	0.00422  	0.00499  	0.01063  	0.00000  	0.00000  
28.81392  	22.96677  	10.33280  	10.55586  	19.32408  	-1.18512  	0.05229  	1.44428  	1.48227  	-3.02442  	0.06829  	-0.08564  	-46.12063  	-1.10583  	437.47485  	426.26280  	-16427.69844  	-4870.81750  	0.00637  	0.00003  	0.00422  	0.00500  	0.01063  	0.00000  	0.00000  
29.81524  	22.97097  	10.33207  	10.55509  	19.32666  	-1.18512  	0.05281  	1.44265  	1.48125  	-3.02442  	0.06885  	-0.08569  	-46.14112  	-1.10562  	437.17552  	425.78193  	-16429.06247  	-4870.71765  	0.00637  	0.00003  	0.00422  	0.00501  	0.01062  	0.00000  	0.00000  
30.81856  	22.97458  	10.33141  	10.55425  	19.32951  	-1.18512  	0.05079  	1.44322  	1.48240  	-3.02442  	0.06754  	-0.08569  	-46.15071  	-1.10474  	437.51347  	425.95055  	-16430.36467  	-4870.61682  	0.00637  	0.00003  	0.00422  	0.00498  	0.01062  	0.00000  	0.00000  
31.82190  	22.97979  	10.33069  	10.55354  	19.33335  	-1.18512  	0.05250  	1.44464  	1.48260  	-3.02442  	0.06997  	-0.08567  	-46.16810  	-1.10476  	437.57266  	426.37091  	-16432.18714  	-4870.52142  	0.00637  	0.00003  	0.00422  	0.00501  	0.01063  	0.00000  	0.00000  
32.82322  	22.98343  	10.32983  	10.55239  	19.33563  	-1.18512  	0.05272  	1.44263  	1.48024  	-3.02442  	0.06891  	-0.08568  	-46.18544  	-1.10335  	436.87687  	425.77710  	-16433.38057  	-4870.38692  	0.00637  	0.00003  	0.00422  	0.00501  	0.01062  	0.00000  	0.00000  
33.82651  	22.98735  	10.32965  	10.55171  	19.33833  	-1.18512  	0.05259  	1.44250  	1.47829  	-3.02442  	0.06792  	-0.08568  	-46.20083  	-1.10092  	436.30229  	425.73868  	-16434.71485  	-4870.32972  	0.00637  	0.00003  	0.00422  	0.00501  	0.01062  	0.00000  	0.00000  
34.82986  	22.99150  	10.32852  	10.55065  	19.34018  	-1.18512  	0.05184  	1.44340  	1.48015  	-3.02442  	0.06777  	-0.08564  	-46.22991  	-1.10121  	436.84974  	426.00310  	-16435.92411  	-4870.18366  	0.00637  	0.00003  	0.00422  	0.00500  	0.01063  	0.00000  	0.00000  
35.83115  	22.99603  	10.32717  	10.54965  	19.34365  	-1.18512  	0.05229  	1.44268  	1.47705  	-3.02442  	0.06793  	-0.08573  	-46.24328  	-1.10292  	435.93559  	425.79137  	-16437.53477  	-4870.02628  	0.00636  	0.00003  	0.00422  	0.00500  	0.01062  	0.00000  	0.00000  
36.83247  	23.00033  	10.32722  	10.54907  	19.34674  	-1.18512  	0.05222  	1.44356  	1.47992  	-3.02442  	0.06763  	-0.08570  	-46.25863  	-1.09984  	436.78105  	426.04995  	-16439.02338  	-4869.99123  	0.00637  	0.00003  	0.00422  	0.00500  	0.01063  	0.00000  	0.00000  
37.83482  	23.00533  	10.32614  	10.54899  	19.34942  	-1.18512  	0.05120  	1.44258  	1.47798  	-3.02442  	0.06904  	-0.08572  	-46.28806  	-1.10481  	436.20829  	425.76242  	-16440.57183  	-4869.91307  	0.00636  	0.00003  	0.00422  	0.00498  	0.01062  	0.00000  	0.00000  
38.83614  	23.00902  	10.32451  	10.54778  	19.35322  	-1.18512  	0.05294  	1.44245  	1.47639  	-3.02442  	0.06741  	-0.08569  	-46.28667  	-1.10688  	435.73994  	425.72415  	-16442.08097  	-4869.72332  	0.00636  	0.00003  	0.00422  	0.00502  	0.01062  	0.00000  	0.00000  
39.83843  	23.01355  	10.32278  	10.54565  	19.35643  	-1.18512  	0.05206  	1.44019  	1.48084  	-3.02442  	0.06846  	-0.08562  	-46.30346  	-1.10488  	437.05424  	425.05635  	-16443.64001  	-4869.46613  	0.00637  	0.00003  	0.00422  	0.00500  	0.01061  	0.00000  	0.00000  
40.84174  	23.01760  	10.32314  	10.54550  	19.35995  	-1.18512  	0.05231  	1.44166  	1.47762  	-3.02442  	0.06807  	-0.08572  	-46.31017  	-1.10237  	436.10178  	425.49013  	-16445.16544  	-4869.47967  	0.00636  	0.00003  	0.00422  	0.00500  	0.01062  	0.00000  	0.00000  
41.84506  	23.02294  	10.32249  	10.54464  	19.36247  	-1.18512  	0.05356  	1.44198  	1.47558  	-3.02442  	0.07075  	-0.08571  	-46.34583  	-1.10133  	435.50014  	425.58403  	-16446.74981  	-4869.37869  	0.00636  	0.00003  	0.00423  	0.00503  	0.01062  	0.00000  	0.00000  
42.84638  	23.02720  	10.32124  	10.54391  	19.36544  	-1.18512  	0.05142  	1.44250  	1.48213  	-3.02442  	0.06879  	-0.08573  	-46.36218  	-1.10387  	437.43469  	425.73787  	-16448.20817  	-4869.24664  	0.00637  	0.00003  	0.00422  	0.00499  	0.01062  	0.00000  	0.00000  
43.84970  	23.03082  	10.31979  	10.54314  	19.36915  	-1.18512  	0.05236  	1.44123  	1.47905  	-3.02442  	0.06824  	-0.08565  	-46.36101  	-1.10730  	436.52549  	425.36353  	-16449.68661  	-4869.09794  	0.00637  	0.00003  	0.00422  	0.00501  	0.01062  	0.00000  	0.00000  
44.85301  	23.03617  	10.31873  	10.54217  	19.37155  	-1.18512  	0.05180  	1.44162  	1.47683  	-3.02442  	0.06905  	-0.08567  	-46.39834  	-1.10776  	435.86975  	425.47931  	-16451.24794  	-4868.96262  	0.00636  	0.00003  	0.00422  	0.00499  	0.01062  	0.00000  	0.00000  
45.85434  	23.04072  	10.31793  	10.54111  	19.37464  	-1.18512  	0.05160  	1.43974  	1.47633  	-3.02442  	0.06894  	-0.08570  	-46.41682  	-1.10640  	435.72270  	424.92447  	-16452.78839  	-4868.83820  	0.00636  	0.00003  	0.00422  	0.00499  	0.01061  	0.00000  	0.00000  
46.85765  	23.04466  	10.31788  	10.54132  	19.37858  	-1.18512  	0.05225  	1.44008  	1.47808  	-3.02442  	0.06755  	-0.08569  	-46.41685  	-1.10772  	436.23847  	425.02320  	-16454.37702  	-4868.84930  	0.00636  	0.00003  	0.00422  	0.00500  	0.01061  	0.00000  	0.00000  
47.86097  	23.05016  	10.31646  	10.53899  	19.38257  	-1.18512  	0.05148  	1.44014  	1.47843  	-3.02442  	0.06878  	-0.08569  	-46.43599  	-1.10319  	436.34147  	425.04181  	-16456.28904  	-4868.59864  	0.00637  	0.00003  	0.00422  	0.00499  	0.01061  	0.00000  	0.00000  
48.86229  	23.05551  	10.31565  	10.53934  	19.38701  	-1.18512  	0.05278  	1.44141  	1.47772  	-3.02442  	0.06757  	-0.08573  	-46.44761  	-1.10893  	436.13167  	425.41745  	-16458.26508  	-4868.56767  	0.00636  	0.00003  	0.00422  	0.00501  	0.01062  	0.00000  	0.00000  
49.86561  	23.05981  	10.31470  	10.53864  	19.39075  	-1.18512  	0.05330  	1.44002  	1.47467  	-3.02442  	0.06690  	-0.08569  	-46.45464  	-1.11023  	435.23190  	425.00564  	-16459.88559  	-4868.45768  	0.00636  	0.00003  	0.00421  	0.00502  	0.01061  	0.00000  	0.00000  
50.86895  	23.06414  	10.31416  	10.53841  	19.39394  	-1.18512  	0.05093  	1.43864  	1.47626  	-3.02442  	0.06798  	-0.08566  	-46.46914  	-1.11175  	435.70153  	424.59734  	-16461.40075  	-4868.40608  	0.00636  	0.00003  	0.00422  	0.00498  	0.01060  	0.00000  	0.00000  
51.86927  	23.06869  	10.31254  	10.53758  	19.39889  	-1.18512  	0.05277  	1.43845  	1.47639  	-3.02442  	0.06900  	-0.08568  	-46.46413  	-1.11564  	435.74037  	424.54220  	-16463.31760  	-4868.24186  	0.00636  	0.00003  	0.00422  	0.00501  	0.01060  	0.00000  	0.00000  
52.87159  	23.07410  	10.31141  	10.53639  	19.40154  	-1.18512  	0.05186  	1.43880  	1.47277  	-3.02442  	0.06937  	-0.08571  	-46.49906  	-1.11533  	434.67204  	424.64563  	-16464.94274  	-4868.08735  	0.00636  	0.00003  	0.00422  	0.00500  	0.01060  	0.00000  	0.00000  
53.87391  	23.07866  	10.31012  	10.53511  	19.40469  	-1.18512  	0.05074  	1.43757  	1.47596  	-3.02442  	0.06702  	-0.08561  	-46.51687  	-1.11541  	435.61355  	424.28421  	-16466.49728  	-4867.91567  	0.00636  	0.00003  	0.00421  	0.00497  	0.01060  	0.00000  	0.00000  
54.87524  	23.08439  	10.30890  	10.53454  	19.40835  	-1.18512  	0.05080  	1.43923  	1.47713  	-3.02442  	0.06883  	-0.08565  	-46.54305  	-1.11863  	435.95772  	424.77347  	-16468.39209  	-4867.79569  	0.00636  	0.00003  	0.00422  	0.00498  	0.01061  	0.00000  	0.00000  
55.87755  	23.08941  	10.30768  	10.53232  	19.41353  	-1.18512  	0.05260  	1.43869  	1.47423  	-3.02442  	0.06953  	-0.08570  	-46.54107  	-1.11365  	435.10330  	424.61437  	-16470.44865  	-4867.56650  	0.00636  	0.00003  	0.00422  	0.00501  	0.01060  	0.00000  	0.00000  
56.88084  	23.09470  	10.30632  	10.53099  	19.41702  	-1.18512  	0.05213  	1.43715  	1.47813  	-3.02442  	0.06779  	-0.08567  	-46.56380  	-1.11383  	436.25221  	424.15910  	-16472.21882  	-4867.38681  	0.00637  	0.00003  	0.00422  	0.00500  	0.01060  	0.00000  	0.00000  
57.88216  	23.09876  	10.30513  	10.53044  	19.42162  	-1.18512  	0.05275  	1.43827  	1.47799  	-3.02442  	0.06957  	-0.08566  	-46.55701  	-1.11701  	436.21286  	424.48835  	-16473.96559  	-4867.27028  	0.00636  	0.00003  	0.00422  	0.00501  	0.01060  	0.00000  	0.00000  
58.88448  	23.10397  	10.30420  	10.52892  	19.42459  	-1.18512  	0.05155  	1.43728  	1.47174  	-3.02442  	0.06773  	-0.08560  	-46.58535  	-1.11405  	434.36645  	424.19650  	-16475.61671  	-4867.10703  	0.00635  	0.00003  	0.00422  	0.00499  	0.01060  	0.00000  	0.00000  
59.88780  	23.10981  	10.30393  	10.52702  	19.42778  	-1.18512  	0.05212  	1.43704  	1.47611  	-3.02442  	0.06919  	-0.08565  	-46.61904  	-1.10599  	435.65627  	424.12709  	-16477.43773  	-4866.96155  	0.00636  	0.00003  	0.00422  	0.00500  	0.01060  	0.00000  	0.00000  
60.89111  	23.11389  	10.30209  	10.52591  	19.43129  	-1.18512  	0.05086  	1.43806  	1.47554  	-3.02442  	0.06831  	-0.08570  	-46.62618  	-1.10960  	435.48850  	424.42751  	-16478.96850  	-4866.76477  	0.00636  	0.00003  	0.00422  	0.00498  	0.01060  	0.00000  	0.00000  
61.89244  	23.12025  	10.30053  	10.52490  	19.43488  	-1.18512  	0.05149  	1.43534  	1.47379  	-3.02442  	0.06763  	-0.08569  	-46.66125  	-1.11233  	434.97375  	423.62612  	-16480.97740  	-4866.59283  	0.00636  	0.00003  	0.00422  	0.00499  	0.01059  	0.00000  	0.00000  
62.89575  	23.12525  	10.29997  	10.52361  	19.43920  	-1.18512  	0.05207  	1.43579  	1.46931  	-3.02442  	0.06798  	-0.08565  	-46.66992  	-1.10874  	433.65131  	423.75883  	-16482.85824  	-4866.46938  	0.00635  	0.00003  	0.00422  	0.00500  	0.01059  	0.00000  	0.00000  
63.89909  	23.13048  	10.29790  	10.52364  	19.44322  	-1.18512  	0.05262  	1.43330  	1.47215  	-3.02442  	0.06902  	-0.08570  	-46.68521  	-1.11910  	434.48947  	423.02374  	-16484.72471  	-4866.33301  	0.00636  	0.00003  	0.00422  	0.00501  	0.01058  	0.00000  	0.00000  
64.89939  	23.13589  	10.29764  	10.52203  	19.44735  	-1.18512  	0.05210  	1.42789  	1.46105  	-3.02442  	0.06798  	-0.08575  	-46.70156  	-1.11245  	431.21204  	421.42548  	-16486.64852  	-4866.20838  	0.00634  	0.00002  	0.00422  	0.00500  	0.01055  	0.00000  	0.00000  
65.90271  	23.14021  	10.29524  	10.52123  	19.45102  	-1.18512  	0.05178  	1.41996  	1.45617  	-3.02442  	0.06876  	-0.08565  	-46.70973  	-1.12039  	429.77186  	419.08656  	-16488.26018  	-4865.99486  	0.00633  	0.00003  	0.00422  	0.00499  	0.01052  	0.00000  	0.00000  
66.90602  	23.14390  	10.29476  	10.52102  	19.45446  	-1.18512  	0.05104  	1.41437  	1.45177  	-3.02442  	0.06774  	-0.08572  	-46.71289  	-1.12168  	428.47325  	417.43524  	-16489.70049  	-4865.94858  	0.00632  	0.00003  	0.00422  	0.00498  	0.01049  	0.00000  	0.00000  
67.90737  	23.14873  	10.29355  	10.51955  	19.45911  	-1.18512  	0.05080  	1.41182  	1.44597  	-3.02442  	0.06695  	-0.08565  	-46.71523  	-1.12040  	426.76059  	416.68168  	-16491.61311  	-4865.76992  	0.00631  	0.00003  	0.00421  	0.00498  	0.01048  	0.00000  	0.00000  
68.90969  	23.15212  	10.29278  	10.51815  	19.46243  	-1.18512  	0.05271  	1.41154  	1.45138  	-3.02442  	0.06971  	-0.08570  	-46.71609  	-1.11731  	428.35805  	416.60106  	-16492.96671  	-4865.62460  	0.00632  	0.00003  	0.00422  	0.00501  	0.01048  	0.00000  	0.00000  
69.91301  	23.15620  	10.29201  	10.51818  	19.46584  	-1.18512  	0.05159  	1.41251  	1.44670  	-3.02442  	0.06715  	-0.08560  	-46.72451  	-1.12128  	426.97860  	416.88806  	-16494.47986  	-4865.57521  	0.00631  	0.00003  	0.00421  	0.00499  	0.01048  	0.00000  	0.00000  
70.91430  	23.16156  	10.29102  	10.51642  	19.47068  	-1.18512  	0.05016  	1.41329  	1.44538  	-3.02442  	0.06822  	-0.08571  	-46.73114  	-1.11741  	426.58709  	417.11695  	-16496.53893  	-4865.39159  	0.00631  	0.00003  	0.00422  	0.00496  	0.01049  	0.00000  	0.00000  
71.91761  	23.16825  	10.28974  	10.51417  	19.47544  	-1.18512  	0.04943  	1.41296  	1.45174  	-3.02442  	0.06721  	-0.08570  	-46.75565  	-1.11262  	428.46424  	417.01898  	-16498.84863  	-4865.15572  	0.00632  	0.00003  	0.00422  	0.00495  	0.01049  	0.00000  	0.00000  
72.92093  	23.17365  	10.28825  	10.51338  	19.48021  	-1.18512  	0.05033  	1.41197  	1.44576  	-3.02442  	0.07014  	-0.08569  	-46.76356  	-1.11608  	426.69912  	416.72696  	-16500.90084  	-4865.00381  	0.00631  	0.00003  	0.00422  	0.00497  	0.01048  	0.00000  	0.00000  
73.92225  	23.17941  	10.28759  	10.51244  	19.48465  	-1.18512  	0.05070  	1.41247  	1.44686  	-3.02442  	0.06791  	-0.08567  	-46.78032  	-1.11473  	427.02402  	416.87512  	-16502.96206  	-4864.89670  	0.00631  	0.00003  	0.00422  	0.00497  	0.01048  	0.00000  	0.00000  
74.92557  	23.18626  	10.28557  	10.51160  	19.48958  	-1.18512  	0.05156  	1.41288  	1.44778  	-3.02442  	0.07003  	-0.08570  	-46.80468  	-1.12052  	427.29472  	416.99530  	-16505.33943  	-4864.70557  	0.00632  	0.00003  	0.00422  	0.00499  	0.01048  	0.00000  	0.00000  
75.92888  	23.19086  	10.28461  	10.50956  	19.49467  	-1.18512  	0.04985  	1.41321  	1.44739  	-3.02442  	0.06831  	-0.08567  	-46.79834  	-1.11521  	427.18244  	417.09320  	-16507.29746  	-4864.50568  	0.00632  	0.00003  	0.00422  	0.00496  	0.01049  	0.00000  	0.00000  
76.93021  	23.19819  	10.28382  	10.50857  	19.49870  	-1.18512  	0.05157  	1.41342  	1.45027  	-3.02442  	0.06938  	-0.08570  	-46.84022  	-1.11421  	428.03129  	417.15589  	-16509.58992  	-4864.38695  	0.00632  	0.00003  	0.00422  	0.00499  	0.01049  	0.00000  	0.00000  
77.93352  	23.20408  	10.28257  	10.50726  	19.50301  	-1.18512  	0.05071  	1.41449  	1.44635  	-3.02442  	0.06986  	-0.08572  	-46.86022  	-1.11390  	426.87270  	417.47140  	-16511.65110  	-4864.21587  	0.00631  	0.00003  	0.00422  	0.00497  	0.01049  	0.00000  	0.00000  
78.93687  	23.20967  	10.28144  	10.50634  	19.50727  	-1.18512  	0.05020  	1.41524  	1.44989  	-3.02442  	0.06718  	-0.08569  	-46.87705  	-1.11495  	427.91974  	417.69378  	-16513.63866  	-4864.07904  	0.00632  	0.00003  	0.00421  	0.00496  	0.01050  	0.00000  	0.00000  
79.93819  	23.21664  	10.28083  	10.50562  	19.51262  	-1.18512  	0.05037  	1.41517  	1.44993  	-3.02442  	0.06737  	-0.08566  	-46.89764  	-1.11442  	427.93078  	417.67079  	-16516.12691  	-4863.98966  	0.00632  	0.00003  	0.00422  	0.00497  	0.01050  	0.00000  	0.00000  
80.94151  	23.22234  	10.27991  	10.50553  	19.51619  	-1.18512  	0.05077  	1.41526  	1.45042  	-3.02442  	0.06914  	-0.08570  	-46.92455  	-1.11855  	428.07586  	417.69892  	-16517.99950  	-4863.92218  	0.00632  	0.00003  	0.00422  	0.00497  	0.01050  	0.00000  	0.00000  
81.94382  	23.22852  	10.27861  	10.50386  	19.52098  	-1.18512  	0.05133  	1.41549  	1.44429  	-3.02442  	0.06892  	-0.08577  	-46.94214  	-1.11669  	426.26746  	417.76582  	-16520.21502  	-4863.72398  	0.00631  	0.00002  	0.00422  	0.00499  	0.01050  	0.00000  	0.00000  
82.94711  	23.23409  	10.27726  	10.50289  	19.52533  	-1.18512  	0.05009  	1.41491  	1.44731  	-3.02442  	0.06896  	-0.08568  	-46.95758  	-1.11858  	427.15853  	417.59537  	-16522.22009  	-4863.56947  	0.00632  	0.00003  	0.00422  	0.00496  	0.01049  	0.00000  	0.00000  
83.94843  	23.24044  	10.27509  	10.50135  	19.53037  	-1.18512  	0.05193  	1.41419  	1.45003  	-3.02442  	0.06795  	-0.08565  	-46.97428  	-1.12171  	427.95989  	417.38139  	-16524.52137  	-4863.32212  	0.00632  	0.00003  	0.00422  	0.00500  	0.01049  	0.00000  	0.00000  
84.95175  	23.24646  	10.27500  	10.49962  	19.53463  	-1.18512  	0.05209  	1.41509  	1.44758  	-3.02442  	0.06766  	-0.08573  	-46.99654  	-1.11355  	427.23805  	417.64756  	-16526.59758  	-4863.20000  	0.00632  	0.00003  	0.00422  	0.00500  	0.01049  	0.00000  	0.00000  
85.95506  	23.25283  	10.27298  	10.49951  	19.53852  	-1.18512  	0.05022  	1.41594  	1.44786  	-3.02442  	0.06800  	-0.08570  	-47.02790  	-1.12302  	427.31863  	417.89826  	-16528.67095  	-4863.05741  	0.00632  	0.00003  	0.00422  	0.00496  	0.01050  	0.00000  	0.00000  
86.95539  	23.25862  	10.27285  	10.49802  	19.54280  	-1.18512  	0.05121  	1.41667  	1.45283  	-3.02442  	0.06864  	-0.08574  	-47.04704  	-1.11628  	428.78632  	418.11505  	-16530.70580  	-4862.94936  	0.00632  	0.00003  	0.00422  	0.00498  	0.01050  	0.00000  	0.00000  
87.95870  	23.26451  	10.27123  	10.49585  	19.54719  	-1.18512  	0.05126  	1.41500  	1.44920  	-3.02442  	0.06872  	-0.08565  	-47.06610  	-1.11354  	427.71671  	417.62077  	-16532.78364  	-4862.69700  	0.00632  	0.00003  	0.00422  	0.00498  	0.01049  	0.00000  	0.00000  
88.96202  	23.27093  	10.26911  	10.49499  	19.55099  	-1.18512  	0.05171  	1.41589  	1.45274  	-3.02442  	0.07065  	-0.08570  	-47.09931  	-1.11983  	428.76100  	417.88311  	-16534.84634  	-4862.49785  	0.00632  	0.00003  	0.00423  	0.00499  	0.01050  	0.00000  	0.00000  
89.96337  	23.27658  	10.26787  	10.49409  	19.55481  	-1.18512  	0.05166  	1.41576  	1.45231  	-3.02442  	0.06830  	-0.08577  	-47.12232  	-1.12149  	428.63417  	417.84606  	-16536.76107  	-4862.35489  	0.00632  	0.00002  	0.00422  	0.00499  	0.01050  	0.00000  	0.00000  
90.96569  	23.28231  	10.26692  	10.49248  	19.56059  	-1.18512  	0.05077  	1.41512  	1.45139  	-3.02442  	0.06914  	-0.08569  	-47.12182  	-1.11820  	428.36207  	417.65588  	-16539.08682  	-4862.18435  	0.00632  	0.00003  	0.00422  	0.00497  	0.01050  	0.00000  	0.00000  
91.96801  	23.28859  	10.26551  	10.49080  	19.56390  	-1.18512  	0.04921  	1.41562  	1.45362  	-3.02442  	0.06949  	-0.08566  	-47.15945  	-1.11689  	429.02050  	417.80573  	-16541.02437  	-4861.97752  	0.00633  	0.00003  	0.00422  	0.00494  	0.01050  	0.00000  	0.00000  
92.96933  	23.29475  	10.26440  	10.49080  	19.56836  	-1.18512  	0.05041  	1.41547  	1.45141  	-3.02442  	0.06737  	-0.08566  	-47.18099  	-1.12236  	428.36676  	417.76090  	-16543.17092  	-4861.90403  	0.00632  	0.00003  	0.00422  	0.00497  	0.01050  	0.00000  	0.00000  
93.97264  	23.30120  	10.26306  	10.48928  	19.57249  	-1.18512  	0.05034  	1.41646  	1.45536  	-3.02442  	0.06769  	-0.08562  	-47.21031  	-1.12148  	429.53286  	418.05209  	-16545.30953  	-4861.71314  	0.00633  	0.00003  	0.00422  	0.00497  	0.01050  	0.00000  	0.00000  
94.97593  	23.30709  	10.26181  	10.48772  	19.57613  	-1.18512  	0.05229  	1.41627  	1.45197  	-3.02442  	0.06921  	-0.08569  	-47.23889  	-1.11997  	428.53337  	417.99750  	-16547.23759  	-4861.52580  	0.00632  	0.00003  	0.00422  	0.00500  	0.01050  	0.00000  	0.00000  
95.97725  	23.31440  	10.26146  	10.48790  	19.58030  	-1.18512  	0.05282  	1.41573  	1.44798  	-3.02442  	0.06846  	-0.08570  	-47.27867  	-1.12257  	427.35399  	417.83620  	-16549.55805  	-4861.51364  	0.00632  	0.00003  	0.00422  	0.00501  	0.01050  	0.00000  	0.00000  
96.98057  	23.31990  	10.26042  	10.48699  	19.58450  	-1.18512  	0.05142  	1.41473  	1.45296  	-3.02442  	0.06850  	-0.08562  	-47.29509  	-1.12322  	428.82515  	417.54143  	-16551.51870  	-4861.38355  	0.00632  	0.00003  	0.00422  	0.00499  	0.01049  	0.00000  	0.00000  
97.98391  	23.32603  	10.25808  	10.48442  	19.58869  	-1.18512  	0.05059  	1.41547  	1.45458  	-3.02442  	0.06893  	-0.08567  	-47.31959  	-1.12208  	429.30397  	417.76117  	-16553.60492  	-4861.05566  	0.00633  	0.00003  	0.00422  	0.00497  	0.01050  	0.00000  	0.00000  
98.98521  	23.33248  	10.25753  	10.48427  	19.59310  	-1.18512  	0.05141  	1.41593  	1.45222  	-3.02442  	0.06794  	-0.08570  	-47.34555  	-1.12406  	428.60573  	417.89682  	-16555.80202  	-4861.00934  	0.00632  	0.00003  	0.00422  	0.00499  	0.01050  	0.00000  	0.00000  
99.98852  	23.33908  	10.25545  	10.48254  	19.59847  	-1.18512  	0.05036  	1.41647  	1.45238  	-3.02442  	0.06801  	-0.08568  	-47.36109  	-1.12579  	428.65502  	418.05393  	-16558.22124  	-4860.75473  	0.00632  	0.00003  	0.00422  	0.00497  	0.01050  	0.00000  	0.00000  
100.99084  	23.34590  	10.25390  	10.48168  	19.60295  	-1.18512  	0.04909  	1.41667  	1.45226  	-3.02442  	0.06857  	-0.08570  	-47.39076  	-1.12923  	428.61892  	418.11438  	-16560.50541  	-4860.59398  	0.00632  	0.00003  	0.00422  	0.00494  	0.01050  	0.00000  	0.00000  
101.99216  	23.35260  	10.25374  	10.47985  	19.60591  	-1.18512  	0.04933  	1.41569  	1.45455  	-3.02442  	0.06931  	-0.08562  	-47.43812  	-1.12094  	429.29281  	417.82426  	-16562.46113  	-4860.46205  	0.00633  	0.00003  	0.00422  	0.00495  	0.01050  	0.00000  	0.00000  
102.99451  	23.35829  	10.25103  	10.47876  	19.61152  	-1.18512  	0.05178  	1.41716  	1.45333  	-3.02442  	0.06832  	-0.08566  	-47.43911  	-1.12899  	428.93531  	418.25775  	-16564.74590  	-4860.20831  	0.00633  	0.00003  	0.00422  	0.00499  	0.01050  	0.00000  	0.00000  
103.99780  	23.36439  	10.25039  	10.47781  	19.61653  	-1.18512  	0.05125  	1.41729  	1.45325  	-3.02442  	0.06843  	-0.08563  	-47.45293  	-1.12744  	428.90966  	418.29664  	-16566.99480  	-4860.10196  	0.00633  	0.00003  	0.00422  	0.00498  	0.01051  	0.00000  	0.00000  
105.00111  	23.37090  	10.24893  	10.47683  	19.62062  	-1.18512  	0.05091  	1.41670  	1.45408  	-3.02442  	0.06956  	-0.08566  	-47.48362  	-1.12984  	429.15468  	418.12325  	-16569.13634  	-4859.93923  	0.00633  	0.00003  	0.00422  	0.00498  	0.01050  	0.00000  	0.00000  
106.00244  	23.37783  	10.24894  	10.47472  	19.62558  	-1.18512  	0.05020  	1.41618  	1.45619  	-3.02442  	0.06878  	-0.08566  	-47.50862  	-1.11933  	429.77684  	417.96969  	-16571.54179  	-4859.79878  	0.00633  	0.00003  	0.00422  	0.00496  	0.01050  	0.00000  	0.00000  
107.00575  	23.38437  	10.24752  	10.47540  	19.62978  	-1.18512  	0.05115  	1.41740  	1.45052  	-3.02442  	0.06823  	-0.08563  	-47.53814  	-1.12973  	428.10349  	418.32926  	-16573.71325  	-4859.74989  	0.00632  	0.00003  	0.00422  	0.00498  	0.01051  	0.00000  	0.00000  
108.00811  	23.39108  	10.24633  	10.47398  	19.63481  	-1.18512  	0.05279  	1.41706  	1.45091  	-3.02442  	0.06884  	-0.08570  	-47.55935  	-1.12860  	428.22018  	418.22938  	-16576.08961  	-4859.57502  	0.00632  	0.00003  	0.00422  	0.00501  	0.01050  	0.00000  	0.00000  
109.00942  	23.39730  	10.24470  	10.47225  	19.63968  	-1.18512  	0.05128  	1.41761  	1.45148  	-3.02442  	0.06749  	-0.08569  	-47.57658  	-1.12809  	428.38702  	418.39081  	-16578.33471  	-4859.35121  	0.00632  	0.00003  	0.00422  	0.00498  	0.01051  	0.00000  	0.00000  
110.01174  	23.40358  	10.24349  	10.47082  	19.64348  	-1.18512  	0.05181  	1.41644  	1.45465  	-3.02442  	0.06882  	-0.08565  	-47.60794  	-1.12699  	429.32418  	418.04537  	-16580.37195  	-4859.17463  	0.00633  	0.00003  	0.00422  	0.00499  	0.01050  	0.00000  	0.00000  
111.01506  	23.41019  	10.24204  	10.47080  	19.64995  	-1.18512  	0.05120  	1.41760  	1.45220  	-3.02442  	0.06916  	-0.08567  	-47.60982  	-1.13411  	428.60093  	418.38992  	-16583.01964  	-4859.07726  	0.00632  	0.00003  	0.00422  	0.00498  	0.01051  	0.00000  	0.00000  
112.01635  	23.41725  	10.24111  	10.46877  	19.65506  	-1.18512  	0.05093  	1.41536  	1.44998  	-3.02442  	0.06708  	-0.08571  	-47.63442  	-1.12859  	427.94465  	417.72689  	-16585.48420  	-4858.87942  	0.00632  	0.00003  	0.00421  	0.00498  	0.01050  	0.00000  	0.00000  
113.01966  	23.42452  	10.23983  	10.46690  	19.65931  	-1.18512  	0.05004  	1.41277  	1.44907  	-3.02442  	0.06958  	-0.08571  	-47.67266  	-1.12568  	427.67595  	416.96212  	-16587.81332  	-4858.66912  	0.00632  	0.00003  	0.00422  	0.00496  	0.01048  	0.00000  	0.00000  
114.02301  	23.43027  	10.23852  	10.46627  	19.66398  	-1.18512  	0.04899  	1.40986  	1.44244  	-3.02442  	0.06893  	-0.08565  	-47.68633  	-1.12907  	425.72153  	416.10593  	-16589.92296  	-4858.54021  	0.00631  	0.00003  	0.00422  	0.00494  	0.01047  	0.00000  	0.00000  
115.02430  	23.43644  	10.23662  	10.46547  	19.66906  	-1.18512  	0.05020  	1.40955  	1.44012  	-3.02442  	0.06936  	-0.08564  	-47.70019  	-1.13455  	425.03538  	416.01449  	-16592.20221  	-4858.36013  	0.00630  	0.00003  	0.00422  	0.00496  	0.01047  	0.00000  	0.00000  
116.02763  	23.44280  	10.23645  	10.46482  	19.67371  	-1.18512  	0.05103  	1.40963  	1.44484  	-3.02442  	0.06831  	-0.08566  	-47.72190  	-1.13215  	426.42993  	416.03655  	-16594.42897  	-4858.30540  	0.00631  	0.00003  	0.00422  	0.00498  	0.01047  	0.00000  	0.00000  
117.02996  	23.44878  	10.23587  	10.46393  	19.67853  	-1.18512  	0.05026  	1.40929  	1.44692  	-3.02442  	0.06806  	-0.08572  	-47.73656  	-1.13064  	427.04182  	415.93733  	-16596.61560  	-4858.20720  	0.00632  	0.00003  	0.00422  	0.00496  	0.01047  	0.00000  	0.00000  
118.03026  	23.45564  	10.23422  	10.46241  	19.68304  	-1.18512  	0.05038  	1.41127  	1.44404  	-3.02442  	0.06992  	-0.08572  	-47.76630  	-1.13123  	426.19332  	416.51955  	-16598.91689  	-4857.99559  	0.00631  	0.00003  	0.00422  	0.00497  	0.01048  	0.00000  	0.00000  
119.03358  	23.46315  	10.23280  	10.46219  	19.68892  	-1.18512  	0.04962  	1.41099  	1.44640  	-3.02442  	0.06765  	-0.08567  	-47.78686  	-1.13722  	426.88771  	416.43765  	-16601.62852  	-4857.88615  	0.00631  	0.00003  	0.00422  	0.00495  	0.01048  	0.00000  	0.00000  
120.03689  	23.46989  	10.23177  	10.46185  	19.69431  	-1.18512  	0.05035  	1.41309  	1.44693  	-3.02442  	0.06756  	-0.08575  	-47.80397  	-1.14063  	427.04498  	417.05756  	-16604.08484  	-4857.79435  	0.00632  	0.00002  	0.00422  	0.00497  	0.01049  	0.00000  	0.00000  
121.03821  	23.47675  	10.23145  	10.46053  	19.69988  	-1.18512  	0.04936  	1.41042  	1.45029  	-3.02442  	0.06882  	-0.08560  	-47.82039  	-1.13566  	428.03786  	416.26928  	-16606.60080  	-4857.68506  	0.00632  	0.00003  	0.00422  	0.00495  	0.01047  	0.00000  	0.00000  
122.04153  	23.48459  	10.23007  	10.45881  	19.70458  	-1.18512  	0.05166  	1.41196  	1.44716  	-3.02442  	0.06842  	-0.08568  	-47.86010  	-1.13396  	427.11279  	416.72449  	-16609.14005  	-4857.47837  	0.00632  	0.00003  	0.00422  	0.00499  	0.01048  	0.00000  	0.00000  
123.04485  	23.49220  	10.22852  	10.45852  	19.71016  	-1.18512  	0.05041  	1.41118  	1.44832  	-3.02442  	0.06862  	-0.08557  	-47.88581  	-1.14023  	427.45643  	416.49283  	-16611.81133  	-4857.35553  	0.00632  	0.00003  	0.00422  	0.00497  	0.01048  	0.00000  	0.00000  
124.04617  	23.49890  	10.22705  	10.45707  	19.71561  	-1.18512  	0.05034  	1.41289  	1.44737  	-3.02442  	0.06741  	-0.08567  	-47.90177  	-1.14033  	427.17438  	417.00006  	-16614.27392  	-4857.16104  	0.00632  	0.00003  	0.00422  	0.00497  	0.01048  	0.00000  	0.00000  
125.04849  	23.50622  	10.22576  	10.45551  	19.72092  	-1.18512  	0.04993  	1.41191  	1.44708  	-3.02442  	0.06927  	-0.08576  	-47.92717  	-1.13896  	427.09050  	416.71102  	-16616.83109  	-4856.97086  	0.00632  	0.00002  	0.00422  	0.00496  	0.01048  	0.00000  	0.00000  
126.05180  	23.51336  	10.22506  	10.45521  	19.72569  	-1.18512  	0.04990  	1.41241  	1.44739  	-3.02442  	0.06680  	-0.08564  	-47.95723  	-1.14097  	427.18057  	416.85630  	-16619.24402  	-4856.90371  	0.00632  	0.00003  	0.00421  	0.00496  	0.01048  	0.00000  	0.00000  
127.05116  	23.52085  	10.22530  	10.45511  	19.73073  	-1.18512  	0.04962  	1.41205  	1.44614  	-3.02442  	0.06763  	-0.08570  	-47.98823  	-1.13927  	426.81323  	416.75043  	-16621.78101  	-4856.91313  	0.00631  	0.00003  	0.00422  	0.00495  	0.01048  	0.00000  	0.00000  
128.05248  	23.52807  	10.22363  	10.45394  	19.73572  	-1.18512  	0.05008  	1.41282  	1.44984  	-3.02442  	0.06980  	-0.08572  	-48.01650  	-1.14173  	427.90275  	416.97930  	-16624.25600  	-4856.72408  	0.00632  	0.00003  	0.00422  	0.00496  	0.01048  	0.00000  	0.00000  
129.05480  	23.53533  	10.22315  	10.45284  	19.74154  	-1.18512  	0.05071  	1.41259  	1.44769  	-3.02442  	0.06694  	-0.08569  	-48.03471  	-1.13872  	427.26864  	416.90955  	-16626.90651  	-4856.61880  	0.00632  	0.00003  	0.00421  	0.00497  	0.01048  	0.00000  	0.00000  
130.05712  	23.54177  	10.22233  	10.45214  	19.74647  	-1.18512  	0.05214  	1.41282  	1.44821  	-3.02442  	0.07012  	-0.08566  	-48.05385  	-1.13933  	427.42336  	416.97742  	-16629.20975  	-4856.51737  	0.00632  	0.00003  	0.00422  	0.00500  	0.01048  	0.00000  	0.00000  
131.05841  	23.55013  	10.22060  	10.45097  	19.75260  	-1.18512  	0.05047  	1.41327  	1.44653  	-3.02442  	0.06766  	-0.08560  	-48.08217  	-1.14209  	426.92756  	417.10981  	-16632.14589  	-4856.32383  	0.00631  	0.00003  	0.00422  	0.00497  	0.01049  	0.00000  	0.00000  
132.06176  	23.55730  	10.22032  	10.44922  	19.75798  	-1.18512  	0.05099  	1.41352  	1.45319  	-3.02442  	0.06928  	-0.08566  	-48.10476  	-1.13479  	428.89197  	417.18540  	-16634.68794  	-4856.18871  	0.00633  	0.00003  	0.00422  	0.00498  	0.01049  	0.00000  	0.00000  
133.06506  	23.56448  	10.21871  	10.44879  	19.76278  	-1.18512  	0.05161  	1.41277  	1.44381  	-3.02442  	0.06827  	-0.08570  	-48.13488  	-1.14065  	426.12359  	416.96314  	-16637.11753  	-4856.05251  	0.00631  	0.00003  	0.00422  	0.00499  	0.01048  	0.00000  	0.00000  
134.06636  	23.57241  	10.21720  	10.44757  	19.76739  	-1.18512  	0.05131  	1.41242  	1.45083  	-3.02442  	0.06735  	-0.08573  	-48.17687  	-1.14207  	428.19515  	416.86112  	-16639.65874  	-4855.87046  	0.00632  	0.00003  	0.00422  	0.00499  	0.01048  	0.00000  	0.00000  
