10/15/2024 09:01:52Time	T_hot_in(C)	T_cold_in(C)	T_cold_out(C)	T_hot_out(C)	mdot_cold(kg/s)	ASFASIFUAS(kg/s)	Diferencial_cold(bar)	Diferencial_hot(bar)	mdot_hot(kg/s)	ABS_cold(bar)	ABS_hot(bar)	q_cold(kW)	q_hot(kW)	ASFASYFY	Tau_cold_haste	Re_hot	Re_cold	U_global	PSIG_cold(bar)	R_fouling	PSIG_hot(bar)	PSID_hot(bar)	m_dot_hot	PSID_cold(bar)	m_dot_cold
1.75132  	0.00000  	0.00000  	0.00000  	0.00000  	-1.18512  	-0.20833  	-0.86278  	-2.50000  	-3.02442  	-1.25000  	-0.08628  	-0.00000  	-0.00000  	-737.84722  	-254.63905  	-9234.48090  	-3618.55272  	0.00000  	0.00000  	0.00000  	0.00000  	0.00000  	0.00000  	0.00000  
2.75463  	22.08965  	10.21550  	10.38843  	16.73815  	-1.18512  	0.01477  	0.25383  	0.23810  	-3.02442  	0.06707  	-0.08568  	-67.75794  	-0.85732  	70.27267  	74.91615  	-15737.46040  	-4851.81393  	0.00438  	0.00003  	0.00421  	0.00428  	0.00514  	0.00000  	0.00000  
3.75598  	22.08789  	10.21440  	10.38802  	16.73821  	-1.18512  	0.01396  	0.25373  	0.24017  	-3.02442  	0.06792  	-0.08566  	-67.73489  	-0.86077  	70.88344  	74.88488  	-15737.12446  	-4851.71333  	0.00438  	0.00003  	0.00422  	0.00427  	0.00514  	0.00000  	0.00000  
4.75930  	22.08652  	10.21270  	10.38608  	16.73704  	-1.18512  	0.01626  	0.25292  	0.23545  	-3.02442  	0.06720  	-0.08568  	-67.73244  	-0.85955  	69.49048  	74.64547  	-15736.62381  	-4851.47138  	0.00438  	0.00003  	0.00422  	0.00431  	0.00514  	0.00000  	0.00000  
5.76261  	22.08486  	10.21195  	10.38523  	16.73707  	-1.18512  	0.01579  	0.25236  	0.23627  	-3.02442  	0.06778  	-0.08567  	-67.71102  	-0.85910  	69.73344  	74.47989  	-15736.30246  	-4851.36437  	0.00438  	0.00003  	0.00422  	0.00430  	0.00514  	0.00000  	0.00000  
6.76294  	22.08279  	10.21122  	10.38532  	16.73662  	-1.18512  	0.01636  	0.25151  	0.23856  	-3.02442  	0.06954  	-0.08569  	-67.69054  	-0.86315  	70.40720  	74.23185  	-15735.80458  	-4851.32127  	0.00438  	0.00003  	0.00422  	0.00431  	0.00513  	0.00000  	0.00000  
7.76625  	22.08083  	10.20936  	10.38432  	16.73538  	-1.18512  	0.01540  	0.25171  	0.23438  	-3.02442  	0.06832  	-0.08568  	-67.68137  	-0.86739  	69.17345  	74.29025  	-15735.17344  	-4851.13092  	0.00438  	0.00003  	0.00422  	0.00430  	0.00513  	0.00000  	0.00000  
8.76954  	22.07894  	10.20923  	10.38225  	16.73465  	-1.18512  	0.01362  	0.25069  	0.23196  	-3.02442  	0.06814  	-0.08577  	-67.66682  	-0.85779  	68.46078  	73.98857  	-15734.65878  	-4850.98417  	0.00437  	0.00002  	0.00422  	0.00426  	0.00513  	0.00000  	0.00000  
9.77086  	22.07732  	10.20857  	10.38126  	16.73266  	-1.18512  	0.01426  	0.24780  	0.23130  	-3.02442  	0.06608  	-0.08569  	-67.67150  	-0.85613  	68.26669  	73.13664  	-15733.94584  	-4850.87422  	0.00437  	0.00003  	0.00421  	0.00427  	0.00512  	0.00000  	0.00000  
10.77321  	22.07551  	10.20754  	10.38078  	16.73134  	-1.18512  	0.01494  	0.24804  	0.23421  	-3.02442  	0.06733  	-0.08570  	-67.66519  	-0.85887  	69.12388  	73.20741  	-15733.32971  	-4850.77356  	0.00437  	0.00003  	0.00422  	0.00429  	0.00512  	0.00000  	0.00000  
11.77653  	22.07340  	10.20638  	10.37924  	16.72987  	-1.18512  	0.01542  	0.24741  	0.22988  	-3.02442  	0.06864  	-0.08569  	-67.65714  	-0.85698  	67.84725  	73.02118  	-15732.62540  	-4850.59423  	0.00437  	0.00003  	0.00422  	0.00430  	0.00512  	0.00000  	0.00000  
12.77984  	22.07222  	10.20495  	10.37805  	16.72782  	-1.18512  	0.01489  	0.24512  	0.22837  	-3.02442  	0.06700  	-0.08566  	-67.66823  	-0.85818  	67.40123  	72.34581  	-15731.98772  	-4850.41879  	0.00437  	0.00003  	0.00421  	0.00429  	0.00510  	0.00000  	0.00000  
13.78014  	22.06987  	10.20326  	10.37680  	16.72568  	-1.18512  	0.01473  	0.24396  	0.22715  	-3.02442  	0.06831  	-0.08571  	-67.66549  	-0.86035  	67.03958  	72.00279  	-15731.10258  	-4850.22396  	0.00436  	0.00003  	0.00422  	0.00428  	0.00510  	0.00000  	0.00000  
14.78246  	22.06828  	10.20269  	10.37570  	16.72365  	-1.18512  	0.01440  	0.24318  	0.22397  	-3.02442  	0.06815  	-0.08569  	-67.67114  	-0.85774  	66.10335  	71.77051  	-15730.39091  	-4850.11162  	0.00436  	0.00003  	0.00422  	0.00428  	0.00510  	0.00000  	0.00000  
15.78577  	22.06576  	10.20275  	10.37481  	16.72050  	-1.18512  	0.01505  	0.24134  	0.22434  	-3.02442  	0.06619  	-0.08569  	-67.67914  	-0.85300  	66.21206  	71.22840  	-15729.27061  	-4850.05711  	0.00436  	0.00003  	0.00421  	0.00429  	0.00509  	0.00000  	0.00000  
16.78709  	22.06464  	10.20242  	10.37531  	16.71804  	-1.18512  	0.01563  	0.24067  	0.22662  	-3.02442  	0.06825  	-0.08565  	-67.69615  	-0.85709  	66.88569  	71.03186  	-15728.56572  	-4850.06808  	0.00436  	0.00003  	0.00422  	0.00430  	0.00508  	0.00000  	0.00000  
17.79041  	22.06264  	10.20188  	10.37420  	16.71548  	-1.18512  	0.01493  	0.23950  	0.22117  	-3.02442  	0.06770  	-0.08563  	-67.70327  	-0.85430  	65.27447  	70.68519  	-15727.66796  	-4849.95862  	0.00435  	0.00003  	0.00422  	0.00429  	0.00508  	0.00000  	0.00000  
18.79373  	22.06064  	10.20220  	10.37428  	16.71216  	-1.18512  	0.01474  	0.23831  	0.22255  	-3.02442  	0.06727  	-0.08569  	-67.71995  	-0.85307  	65.68358  	70.33586  	-15726.61985  	-4849.98479  	0.00436  	0.00003  	0.00422  	0.00428  	0.00507  	0.00000  	0.00000  
19.79507  	22.05840  	10.20086  	10.37350  	16.70946  	-1.18512  	0.01503  	0.23996  	0.22445  	-3.02442  	0.06660  	-0.08567  	-67.72568  	-0.85589  	66.24359  	70.82138  	-15725.64614  	-4849.84314  	0.00436  	0.00003  	0.00421  	0.00429  	0.00508  	0.00000  	0.00000  
20.79839  	22.05806  	10.20073  	10.37364  	16.70580  	-1.18512  	0.01618  	0.24259  	0.22627  	-3.02442  	0.06752  	-0.08566  	-67.76772  	-0.85722  	66.78023  	71.59820  	-15724.85784  	-4849.84437  	0.00436  	0.00003  	0.00422  	0.00431  	0.00509  	0.00000  	0.00000  
21.80168  	22.05695  	10.20036  	10.37267  	16.70279  	-1.18512  	0.01514  	0.24632  	0.23150  	-3.02442  	0.06701  	-0.08567  	-67.79183  	-0.85430  	68.32402  	72.69936  	-15724.04632  	-4849.75498  	0.00437  	0.00003  	0.00421  	0.00429  	0.00511  	0.00000  	0.00000  
22.80300  	22.05661  	10.19986  	10.37200  	16.69906  	-1.18512  	0.01480  	0.24877  	0.23333  	-3.02442  	0.06803  	-0.08563  	-67.83478  	-0.85343  	68.86391  	73.42295  	-15723.24228  	-4849.67657  	0.00437  	0.00003  	0.00422  	0.00428  	0.00512  	0.00000  	0.00000  
23.80632  	22.05538  	10.19793  	10.37071  	16.69766  	-1.18512  	0.01411  	0.25021  	0.23617  	-3.02442  	0.06863  	-0.08572  	-67.83695  	-0.85657  	69.70347  	73.84585  	-15722.72360  	-4849.46275  	0.00438  	0.00003  	0.00422  	0.00427  	0.00513  	0.00000  	0.00000  
24.80966  	22.05521  	10.19737  	10.36998  	16.69551  	-1.18512  	0.01497  	0.25294  	0.23926  	-3.02442  	0.06865  	-0.08568  	-67.86209  	-0.85572  	70.61426  	74.65224  	-15722.26867  	-4849.37676  	0.00438  	0.00003  	0.00422  	0.00429  	0.00514  	0.00000  	0.00000  
25.81098  	22.05558  	10.19543  	10.36819  	16.69350  	-1.18512  	0.01579  	0.25524  	0.23944  	-3.02442  	0.06925  	-0.08565  	-67.89216  	-0.85648  	70.66763  	75.33004  	-15721.94653  	-4849.12799  	0.00438  	0.00003  	0.00422  	0.00430  	0.00515  	0.00000  	0.00000  
26.81328  	22.05474  	10.19436  	10.36679  	16.69221  	-1.18512  	0.01544  	0.25605  	0.23815  	-3.02442  	0.06714  	-0.08571  	-67.89783  	-0.85483  	70.28763  	75.57142  	-15721.52514  	-4848.96355  	0.00438  	0.00003  	0.00421  	0.00430  	0.00515  	0.00000  	0.00000  
27.81659  	22.05466  	10.19327  	10.36461  	16.69284  	-1.18512  	0.01681  	0.25789  	0.23861  	-3.02442  	0.06793  	-0.08577  	-67.88895  	-0.84941  	70.42376  	76.11439  	-15721.63309  	-4848.74550  	0.00438  	0.00002  	0.00422  	0.00432  	0.00516  	0.00000  	0.00000  
28.81791  	22.05419  	10.19225  	10.36466  	16.69268  	-1.18512  	0.01621  	0.25882  	0.24375  	-3.02442  	0.06783  	-0.08565  	-67.88501  	-0.85476  	71.94026  	76.38842  	-15721.50911  	-4848.68094  	0.00439  	0.00003  	0.00422  	0.00431  	0.00517  	0.00000  	0.00000  
29.82126  	22.05441  	10.19194  	10.36503  	16.69246  	-1.18512  	0.01596  	0.25873  	0.24072  	-3.02442  	0.06837  	-0.08572  	-67.89053  	-0.85811  	71.04729  	76.36020  	-15721.50847  	-4848.68482  	0.00439  	0.00003  	0.00422  	0.00431  	0.00517  	0.00000  	0.00000  
30.82457  	22.05404  	10.19060  	10.36473  	16.69284  	-1.18512  	0.01546  	0.25989  	0.24173  	-3.02442  	0.06867  	-0.08577  	-67.88112  	-0.86326  	71.34409  	76.70510  	-15721.51212  	-4848.57544  	0.00439  	0.00002  	0.00422  	0.00430  	0.00517  	0.00000  	0.00000  
31.82490  	22.05282  	10.18799  	10.36222  	16.69442  	-1.18512  	0.01537  	0.25958  	0.24289  	-3.02442  	0.06736  	-0.08569  	-67.84568  	-0.86379  	71.68629  	76.61257  	-15721.58083  	-4848.23412  	0.00439  	0.00003  	0.00422  	0.00430  	0.00517  	0.00000  	0.00000  
32.82719  	22.05210  	10.18735  	10.36129  	16.69422  	-1.18512  	0.01545  	0.25900  	0.24416  	-3.02442  	0.06835  	-0.08575  	-67.83913  	-0.86235  	72.06080  	76.43966  	-15721.39983  	-4848.13050  	0.00439  	0.00002  	0.00422  	0.00430  	0.00517  	0.00000  	0.00000  
33.83050  	22.05057  	10.18681  	10.36009  	16.69534  	-1.18512  	0.01520  	0.25800  	0.24396  	-3.02442  	0.06797  	-0.08571  	-67.80559  	-0.85906  	72.00210  	76.14487  	-15721.32105  	-4848.01409  	0.00439  	0.00003  	0.00422  	0.00429  	0.00516  	0.00000  	0.00000  
34.83385  	22.04989  	10.18571  	10.35978  	16.69694  	-1.18512  	0.01564  	0.25655  	0.23819  	-3.02442  	0.06866  	-0.08573  	-67.77670  	-0.86299  	70.30010  	75.71809  	-15721.50250  	-4847.91991  	0.00438  	0.00003  	0.00422  	0.00430  	0.00516  	0.00000  	0.00000  
35.83517  	22.04824  	10.18456  	10.35790  	16.69632  	-1.18512  	0.01663  	0.25654  	0.24037  	-3.02442  	0.06817  	-0.08572  	-67.76369  	-0.85935  	70.94153  	75.71450  	-15721.05546  	-4847.71868  	0.00438  	0.00003  	0.00422  	0.00432  	0.00516  	0.00000  	0.00000  
36.83848  	22.04678  	10.18312  	10.35705  	16.69732  	-1.18512  	0.01638  	0.25502  	0.24098  	-3.02442  	0.06818  	-0.08574  	-67.73253  	-0.86228  	71.12394  	75.26757  	-15720.96237  	-4847.56568  	0.00439  	0.00003  	0.00422  	0.00431  	0.00515  	0.00000  	0.00000  
37.84178  	22.04592  	10.18289  	10.35657  	16.69703  	-1.18512  	0.01470  	0.25501  	0.23718  	-3.02442  	0.06804  	-0.08571  	-67.72527  	-0.86105  	70.00158  	75.26216  	-15720.73774  	-4847.51786  	0.00438  	0.00003  	0.00422  	0.00428  	0.00515  	0.00000  	0.00000  
38.84309  	22.04403  	10.18215  	10.35657  	16.69669  	-1.18512  	0.01491  	0.25359  	0.23647  	-3.02442  	0.06824  	-0.08562  	-67.70567  	-0.86471  	69.79097  	74.84290  	-15720.29766  	-4847.46899  	0.00438  	0.00003  	0.00422  	0.00429  	0.00514  	0.00000  	0.00000  
39.84641  	22.04181  	10.18069  	10.35478  	16.69743  	-1.18512  	0.01485  	0.25322  	0.23745  	-3.02442  	0.06877  	-0.08568  	-67.66821  	-0.86310  	70.08012  	74.73531  	-15720.00730  	-4847.25260  	0.00438  	0.00003  	0.00422  	0.00429  	0.00514  	0.00000  	0.00000  
40.84972  	22.04058  	10.18073  	10.35377  	16.69728  	-1.18512  	0.01590  	0.25239  	0.23436  	-3.02442  	0.06876  	-0.08569  	-67.65456  	-0.85786  	69.16744  	74.48890  	-15719.73474  	-4847.18772  	0.00437  	0.00003  	0.00422  	0.00431  	0.00514  	0.00000  	0.00000  
41.85108  	22.03961  	10.18144  	10.35389  	16.69704  	-1.18512  	0.01632  	0.25149  	0.23753  	-3.02442  	0.06653  	-0.08569  	-67.64537  	-0.85497  	70.10295  	74.22304  	-15719.49594  	-4847.24331  	0.00438  	0.00003  	0.00421  	0.00431  	0.00513  	0.00000  	0.00000  
42.85436  	22.03748  	10.18196  	10.35465  	16.69677  	-1.18512  	0.01539  	0.25216  	0.23601  	-3.02442  	0.06849  	-0.08571  	-67.62188  	-0.85616  	69.65717  	74.42117  	-15719.02369  	-4847.32886  	0.00438  	0.00003  	0.00422  	0.00430  	0.00514  	0.00000  	0.00000  
43.85771  	22.03582  	10.18052  	10.35449  	16.69531  	-1.18512  	0.01434  	0.25003  	0.23367  	-3.02442  	0.06961  	-0.08568  	-67.61931  	-0.86247  	68.96471  	73.79423  	-15718.40916  	-4847.22240  	0.00437  	0.00003  	0.00422  	0.00428  	0.00513  	0.00000  	0.00000  
44.85903  	22.03527  	10.18013  	10.35340  	16.69374  	-1.18512  	0.01467  	0.24861  	0.23480  	-3.02442  	0.06740  	-0.08569  	-67.63216  	-0.85903  	69.29878  	73.37446  	-15717.99169  	-4847.12374  	0.00438  	0.00003  	0.00422  	0.00428  	0.00512  	0.00000  	0.00000  
45.86232  	22.03326  	10.17833  	10.35289  	16.69215  	-1.18512  	0.01622  	0.24971  	0.23450  	-3.02442  	0.06814  	-0.08567  	-67.62685  	-0.86540  	69.21071  	73.69836  	-15717.28297  	-4846.96965  	0.00438  	0.00003  	0.00422  	0.00431  	0.00513  	0.00000  	0.00000  
46.86563  	22.03193  	10.17859  	10.35167  	16.69145  	-1.18512  	0.01453  	0.24664  	0.23112  	-3.02442  	0.06678  	-0.08563  	-67.61887  	-0.85810  	68.21325  	72.79187  	-15716.88137  	-4846.90556  	0.00437  	0.00003  	0.00421  	0.00428  	0.00511  	0.00000  	0.00000  
47.86695  	22.02914  	10.17832  	10.35182  	16.68972  	-1.18512  	0.01472  	0.24697  	0.23140  	-3.02442  	0.06735  	-0.08571  	-67.60553  	-0.86016  	68.29430  	72.89167  	-15715.99032  	-4846.89761  	0.00437  	0.00003  	0.00422  	0.00428  	0.00511  	0.00000  	0.00000  
48.87027  	22.02770  	10.17685  	10.35148  	16.68774  	-1.18512  	0.01451  	0.24428  	0.22899  	-3.02442  	0.06776  	-0.08569  	-67.61226  	-0.86574  	67.58281  	72.09573  	-15715.31713  	-4846.77729  	0.00437  	0.00003  	0.00422  	0.00428  	0.00510  	0.00000  	0.00000  
49.87358  	22.02644  	10.17730  	10.35110  	16.68584  	-1.18512  	0.01514  	0.24375  	0.22822  	-3.02442  	0.06813  	-0.08574  	-67.62040  	-0.86162  	67.35704  	71.94052  	-15714.69554  	-4846.78186  	0.00437  	0.00003  	0.00422  	0.00429  	0.00510  	0.00000  	0.00000  
50.87491  	22.02429  	10.17720  	10.35014  	16.68433  	-1.18512  	0.01485  	0.24163  	0.22696  	-3.02442  	0.06754  	-0.08566  	-67.61230  	-0.85738  	66.98385  	71.31321  	-15713.97439  	-4846.71138  	0.00436  	0.00003  	0.00422  	0.00429  	0.00509  	0.00000  	0.00000  
51.87822  	22.02258  	10.17670  	10.34946  	16.68191  	-1.18512  	0.01573  	0.24137  	0.22529  	-3.02442  	0.06782  	-0.08572  	-67.62133  	-0.85651  	66.49140  	71.23760  	-15713.15933  	-4846.63230  	0.00436  	0.00003  	0.00422  	0.00430  	0.00509  	0.00000  	0.00000  
52.88154  	22.02115  	10.17516  	10.34848  	16.67898  	-1.18512  	0.01521  	0.23985  	0.22555  	-3.02442  	0.06874  	-0.08569  	-67.64041  	-0.85929  	66.56839  	70.78983  	-15712.30275  	-4846.46456  	0.00436  	0.00003  	0.00422  	0.00429  	0.00508  	0.00000  	0.00000  
53.88286  	22.01967  	10.17378  	10.34746  	16.67613  	-1.18512  	0.01642  	0.23997  	0.22355  	-3.02442  	0.06793  	-0.08578  	-67.65767  	-0.86106  	65.97880  	70.82493  	-15711.44936  	-4846.30493  	0.00436  	0.00002  	0.00422  	0.00432  	0.00508  	0.00000  	0.00000  
54.88418  	22.01838  	10.17194  	10.34570  	16.67318  	-1.18512  	0.01472  	0.23918  	0.22589  	-3.02442  	0.06684  	-0.08573  	-67.67876  	-0.86142  	66.66832  	70.59012  	-15710.61482  	-4846.06547  	0.00436  	0.00003  	0.00421  	0.00428  	0.00508  	0.00000  	0.00000  
55.88750  	22.01663  	10.17093  	10.34383  	16.67009  	-1.18512  	0.01510  	0.24237  	0.22555  	-3.02442  	0.06997  	-0.08565  	-67.69569  	-0.85717  	66.56932  	71.53363  	-15709.66180  	-4845.87297  	0.00436  	0.00003  	0.00422  	0.00429  	0.00509  	0.00000  	0.00000  
56.89084  	22.01644  	10.16976  	10.34278  	16.66633  	-1.18512  	0.01502  	0.24532  	0.22331  	-3.02442  	0.06705  	-0.08569  	-67.74101  	-0.85777  	65.90663  	72.40354  	-15708.88183  	-4845.72546  	0.00436  	0.00003  	0.00421  	0.00429  	0.00511  	0.00000  	0.00000  
57.89216  	22.01607  	10.16866  	10.34177  	16.66495  	-1.18512  	0.01389  	0.24726  	0.23389  	-3.02442  	0.06785  	-0.08564  	-67.75378  	-0.85822  	69.03081  	72.97513  	-15708.53759  	-4845.58459  	0.00437  	0.00003  	0.00422  	0.00427  	0.00511  	0.00000  	0.00000  
58.89548  	22.01552  	10.16847  	10.34091  	16.66236  	-1.18512  	0.01574  	0.24971  	0.23399  	-3.02442  	0.06884  	-0.08564  	-67.77951  	-0.85488  	69.05949  	73.69796  	-15707.91971  	-4845.51486  	0.00437  	0.00003  	0.00422  	0.00430  	0.00513  	0.00000  	0.00000  
59.89880  	22.01540  	10.16727  	10.33977  	16.66004  	-1.18512  	0.01623  	0.25219  	0.23501  	-3.02442  	0.06835  	-0.08573  	-67.80742  	-0.85517  	69.35995  	74.43183  	-15707.43801  	-4845.35944  	0.00438  	0.00003  	0.00422  	0.00431  	0.00514  	0.00000  	0.00000  
60.89913  	22.01502  	10.16611  	10.33868  	16.65942  	-1.18512  	0.01594  	0.25342  	0.24019  	-3.02442  	0.06779  	-0.08565  	-67.81043  	-0.85554  	70.89055  	74.79304  	-15707.24233  	-4845.20928  	0.00438  	0.00003  	0.00422  	0.00431  	0.00514  	0.00000  	0.00000  
61.90241  	22.01513  	10.16529  	10.33830  	16.65822  	-1.18512  	0.01563  	0.25511  	0.23790  	-3.02442  	0.06774  	-0.08566  	-67.82712  	-0.85774  	70.21241  	75.29198  	-15707.02778  	-4845.12947  	0.00438  	0.00003  	0.00422  	0.00430  	0.00515  	0.00000  	0.00000  
62.90572  	22.01456  	10.16441  	10.33645  	16.65718  	-1.18512  	0.01584  	0.25616  	0.24087  	-3.02442  	0.06647  	-0.08572  	-67.83302  	-0.85294  	71.08908  	75.60389  	-15706.71102  	-4844.94808  	0.00439  	0.00003  	0.00421  	0.00430  	0.00516  	0.00000  	0.00000  
63.90705  	22.01490  	10.16295  	10.33619  	16.65690  	-1.18512  	0.01669  	0.25747  	0.24155  	-3.02442  	0.06693  	-0.08566  	-67.84095  	-0.85888  	71.29085  	75.98844  	-15706.72362  	-4844.83344  	0.00439  	0.00003  	0.00421  	0.00432  	0.00516  	0.00000  	0.00000  
64.91036  	22.01471  	10.16217  	10.33544  	16.65630  	-1.18512  	0.01588  	0.25929  	0.24071  	-3.02442  	0.06705  	-0.08568  	-67.84614  	-0.85901  	71.04325  	76.52749  	-15706.56730  	-4844.73172  	0.00439  	0.00003  	0.00421  	0.00430  	0.00517  	0.00000  	0.00000  
65.91370  	22.01444  	10.16169  	10.33482  	16.65725  	-1.18512  	0.01529  	0.25902  	0.24558  	-3.02442  	0.06911  	-0.08570  	-67.83073  	-0.85832  	72.47949  	76.44795  	-15706.70150  	-4844.65860  	0.00439  	0.00003  	0.00422  	0.00429  	0.00517  	0.00000  	0.00000  
66.91500  	22.01321  	10.16096  	10.33502  	16.65786  	-1.18512  	0.01560  	0.25968  	0.24525  	-3.02442  	0.06694  	-0.08564  	-67.80742  	-0.86292  	72.38169  	76.64283  	-15706.57686  	-4844.62272  	0.00439  	0.00003  	0.00421  	0.00430  	0.00517  	0.00000  	0.00000  
67.91832  	22.01367  	10.16044  	10.33560  	16.65896  	-1.18512  	0.01564  	0.25804  	0.24583  	-3.02442  	0.06907  	-0.08570  	-67.79930  	-0.86836  	72.55403  	76.15750  	-15706.88622  	-4844.62675  	0.00439  	0.00003  	0.00422  	0.00430  	0.00516  	0.00000  	0.00000  
68.92166  	22.01280  	10.16023  	10.33576  	16.66000  	-1.18512  	0.01598  	0.25813  	0.24436  	-3.02442  	0.06888  	-0.08570  	-67.77508  	-0.87020  	72.11962  	76.18447  	-15706.91927  	-4844.62322  	0.00439  	0.00003  	0.00422  	0.00431  	0.00516  	0.00000  	0.00000  
69.92195  	22.01190  	10.16087  	10.33511  	16.66121  	-1.18512  	0.01530  	0.25783  	0.24353  	-3.02442  	0.06815  	-0.08568  	-67.74838  	-0.86382  	71.87497  	76.09456  	-15706.98102  	-4844.62263  	0.00439  	0.00003  	0.00422  	0.00429  	0.00516  	0.00000  	0.00000  
70.92529  	22.01080  	10.16018  	10.33450  	16.66136  	-1.18512  	0.01502  	0.25684  	0.24160  	-3.02442  	0.06853  	-0.08570  	-67.73260  	-0.86423  	71.30548  	75.80241  	-15706.79351  	-4844.53619  	0.00439  	0.00003  	0.00422  	0.00429  	0.00516  	0.00000  	0.00000  
71.92862  	22.00961  	10.16049  	10.33431  	16.66336  	-1.18512  	0.01506  	0.25551  	0.24036  	-3.02442  	0.06907  	-0.08572  	-67.69222  	-0.86177  	70.94055  	75.41132  	-15706.95342  	-4844.54448  	0.00438  	0.00003  	0.00422  	0.00429  	0.00515  	0.00000  	0.00000  
72.92991  	22.00897  	10.15927  	10.33363  	16.66356  	-1.18512  	0.01532  	0.25492  	0.24068  	-3.02442  	0.06760  	-0.08565  	-67.68160  	-0.86442  	71.03282  	75.23726  	-15706.86767  	-4844.41769  	0.00439  	0.00003  	0.00422  	0.00429  	0.00515  	0.00000  	0.00000  
73.93322  	22.00787  	10.15955  	10.33300  	16.66443  	-1.18512  	0.01478  	0.25599  	0.24318  	-3.02442  	0.06820  	-0.08571  	-67.65667  	-0.85992  	71.77284  	75.55317  	-15706.81950  	-4844.39477  	0.00439  	0.00003  	0.00422  	0.00428  	0.00515  	0.00000  	0.00000  
74.93654  	22.00632  	10.15931  	10.33238  	16.66364  	-1.18512  	0.01567  	0.25424  	0.23844  	-3.02442  	0.06685  	-0.08567  	-67.64703  	-0.85805  	70.37194  	75.03504  	-15706.36178  	-4844.33740  	0.00438  	0.00003  	0.00421  	0.00430  	0.00515  	0.00000  	0.00000  
75.93789  	22.00474  	10.15736  	10.33221  	16.66335  	-1.18512  	0.01555  	0.25468  	0.24065  	-3.02442  	0.06888  	-0.08574  	-67.63068  	-0.86682  	71.02424  	75.16598  	-15705.99235  	-4844.19624  	0.00439  	0.00003  	0.00422  	0.00430  	0.00515  	0.00000  	0.00000  
76.94118  	22.00363  	10.15748  	10.33138  	16.66349  	-1.18512  	0.01512  	0.25306  	0.23471  	-3.02442  	0.06740  	-0.08563  	-67.61488  	-0.86212  	69.27307  	74.68656  	-15705.80066  	-4844.14895  	0.00438  	0.00003  	0.00422  	0.00429  	0.00514  	0.00000  	0.00000  
77.94449  	22.00235  	10.15736  	10.33121  	16.66336  	-1.18512  	0.01539  	0.25289  	0.23597  	-3.02442  	0.06873  	-0.08573  	-67.60028  	-0.86189  	69.64523  	74.63781  	-15705.52245  	-4844.12946  	0.00438  	0.00003  	0.00422  	0.00430  	0.00514  	0.00000  	0.00000  
78.94781  	22.00083  	10.15662  	10.33065  	16.66295  	-1.18512  	0.01505  	0.25193  	0.23696  	-3.02442  	0.06740  	-0.08572  	-67.58624  	-0.86278  	69.93484  	74.35325  	-15705.14435  	-4844.04342  	0.00438  	0.00003  	0.00422  	0.00429  	0.00514  	0.00000  	0.00000  
79.94913  	21.99921  	10.15616  	10.32987  	16.66273  	-1.18512  	0.01474  	0.25146  	0.23599  	-3.02442  	0.06821  	-0.08565  	-67.56858  	-0.86116  	69.65053  	74.21635  	-15704.77959  	-4843.96061  	0.00438  	0.00003  	0.00422  	0.00428  	0.00513  	0.00000  	0.00000  
80.95245  	21.99839  	10.15404  	10.32791  	16.66115  	-1.18512  	0.01577  	0.24992  	0.23433  	-3.02442  	0.06819  	-0.08575  	-67.57821  	-0.86200  	69.15939  	73.76035  	-15704.30770  	-4843.68879  	0.00437  	0.00002  	0.00422  	0.00430  	0.00513  	0.00000  	0.00000  
81.95576  	21.99695  	10.15334  	10.32601  	16.66060  	-1.18512  	0.01517  	0.24912  	0.23246  	-3.02442  	0.06809  	-0.08571  	-67.56701  	-0.85603  	68.60726  	73.52568  	-15703.91533  	-4843.51557  	0.00437  	0.00003  	0.00422  	0.00429  	0.00512  	0.00000  	0.00000  
82.95708  	21.99575  	10.15140  	10.32524  	16.66048  	-1.18512  	0.01498  	0.24817  	0.23392  	-3.02442  	0.06773  	-0.08567  	-67.55329  	-0.86185  	69.03798  	73.24544  	-15703.65734  	-4843.33483  	0.00437  	0.00003  	0.00422  	0.00429  	0.00512  	0.00000  	0.00000  
83.96040  	21.99384  	10.15100  	10.32356  	16.65852  	-1.18512  	0.01604  	0.24659  	0.22862  	-3.02442  	0.06678  	-0.08568  	-67.55403  	-0.85549  	67.47507  	72.77770  	-15702.89413  	-4843.19698  	0.00437  	0.00003  	0.00421  	0.00431  	0.00511  	0.00000  	0.00000  
84.96372  	21.99213  	10.14983  	10.32306  	16.65682  	-1.18512  	0.01540  	0.24453  	0.22868  	-3.02442  	0.06910  	-0.08570  	-67.55381  	-0.85882  	67.49274  	72.17167  	-15702.22433  	-4843.08517  	0.00437  	0.00003  	0.00422  	0.00430  	0.00510  	0.00000  	0.00000  
85.96504  	21.99090  	10.14813  	10.32167  	16.65542  	-1.18512  	0.01571  	0.24194  	0.22783  	-3.02442  	0.06691  	-0.08565  	-67.55603  	-0.86035  	67.24007  	71.40532  	-15701.70495  	-4842.87956  	0.00436  	0.00003  	0.00421  	0.00430  	0.00509  	0.00000  	0.00000  
86.96838  	21.99026  	10.14623  	10.31980  	16.65418  	-1.18512  	0.01480  	0.24216  	0.22663  	-3.02442  	0.06810  	-0.08562  	-67.56372  	-0.86051  	66.88821  	71.47108  	-15701.33490  	-4842.62887  	0.00436  	0.00003  	0.00422  	0.00428  	0.00509  	0.00000  	0.00000  
87.97069  	21.98734  	10.14547  	10.31780  	16.64996  	-1.18512  	0.01616  	0.24009  	0.22445  	-3.02442  	0.06819  	-0.08567  	-67.58010  	-0.85436  	66.24524  	70.86069  	-15699.93041  	-4842.44485  	0.00436  	0.00003  	0.00422  	0.00431  	0.00508  	0.00000  	0.00000  
88.97199  	21.98616  	10.14495  	10.31728  	16.64775  	-1.18512  	0.01571  	0.23985  	0.22452  	-3.02442  	0.06784  	-0.08579  	-67.59315  	-0.85436  	66.26553  	70.79033  	-15699.26291  	-4842.37634  	0.00436  	0.00002  	0.00422  	0.00430  	0.00508  	0.00000  	0.00000  
89.97531  	21.98471  	10.14517  	10.31671  	16.64523  	-1.18512  	0.01339  	0.23827  	0.22152  	-3.02442  	0.06821  	-0.08570  	-67.60667  	-0.85044  	65.37853  	70.32287  	-15698.47967  	-4842.35284  	0.00435  	0.00003  	0.00422  	0.00426  	0.00507  	0.00000  	0.00000  
90.97863  	21.98377  	10.14490  	10.31621  	16.64190  	-1.18512  	0.01519  	0.24073  	0.22200  	-3.02442  	0.06760  	-0.08572  	-67.63690  	-0.84931  	65.51937  	71.04792  	-15697.63956  	-4842.30115  	0.00436  	0.00003  	0.00422  	0.00429  	0.00508  	0.00000  	0.00000  
91.97898  	21.98249  	10.14401  	10.31626  	16.63786  	-1.18512  	0.01537  	0.24300  	0.22994  	-3.02442  	0.06894  	-0.08570  	-67.67195  	-0.85396  	67.86465  	71.71873  	-15696.59227  	-4842.24610  	0.00437  	0.00003  	0.00422  	0.00430  	0.00509  	0.00000  	0.00000  
92.98030  	21.98069  	10.14375  	10.31609  	16.63510  	-1.18512  	0.01528  	0.24684  	0.22961  	-3.02442  	0.06765  	-0.08571  	-67.68411  	-0.85436  	67.76606  	72.85268  	-15695.69307  	-4842.21704  	0.00437  	0.00003  	0.00422  	0.00429  	0.00511  	0.00000  	0.00000  
93.98362  	21.98112  	10.14307  	10.31468  	16.63360  	-1.18512  	0.01536  	0.24828  	0.23010  	-3.02442  	0.06819  	-0.08562  	-67.70852  	-0.85077  	67.91289  	73.27746  	-15695.48537  	-4842.07757  	0.00437  	0.00003  	0.00422  	0.00429  	0.00512  	0.00000  	0.00000  
94.98494  	21.98067  	10.14150  	10.31416  	16.63137  	-1.18512  	0.01477  	0.25042  	0.23606  	-3.02442  	0.06749  	-0.08559  	-67.73104  	-0.85597  	69.67140  	73.90880  	-15694.95747  	-4841.93915  	0.00438  	0.00003  	0.00422  	0.00428  	0.00513  	0.00000  	0.00000  
95.98823  	21.98185  	10.14061  	10.31334  	16.62916  	-1.18512  	0.01505  	0.25296  	0.23629  	-3.02442  	0.06778  	-0.08568  	-67.77398  	-0.85632  	69.73844  	74.65928  	-15694.75297  	-4841.82503  	0.00438  	0.00003  	0.00422  	0.00429  	0.00514  	0.00000  	0.00000  
96.98955  	21.98144  	10.14115  	10.31377  	16.62818  	-1.18512  	0.01532  	0.25527  	0.23842  	-3.02442  	0.06726  	-0.08574  	-67.78130  	-0.85578  	70.36607  	75.33988  	-15694.47919  	-4841.88957  	0.00438  	0.00003  	0.00422  	0.00429  	0.00515  	0.00000  	0.00000  
97.99087  	21.98201  	10.14083  	10.31366  	16.62623  	-1.18512  	0.01509  	0.25635  	0.24152  	-3.02442  	0.06874  	-0.08569  	-67.81317  	-0.85685  	71.28066  	75.65863  	-15694.20791  	-4841.86106  	0.00439  	0.00003  	0.00422  	0.00429  	0.00516  	0.00000  	0.00000  
98.99219  	21.98247  	10.14002  	10.31287  	16.62698  	-1.18512  	0.01538  	0.25769  	0.24302  	-3.02442  	0.06786  	-0.08567  	-67.80950  	-0.85694  	71.72403  	76.05365  	-15694.44647  	-4841.75404  	0.00439  	0.00003  	0.00422  	0.00430  	0.00516  	0.00000  	0.00000  
99.99451  	21.98252  	10.13858  	10.31309  	16.62701  	-1.18512  	0.01509  	0.25767  	0.24524  	-3.02442  	0.06922  	-0.08566  	-67.80968  	-0.86518  	72.38067  	76.04758  	-15694.46191  	-4841.67311  	0.00439  	0.00003  	0.00422  	0.00429  	0.00516  	0.00000  	0.00000  
100.99782  	21.98221  	10.13778  	10.31247  	16.62756  	-1.18512  	0.01598  	0.25882  	0.24111  	-3.02442  	0.06748  	-0.08564  	-67.79876  	-0.86605  	71.16114  	76.38882  	-15694.50953  	-4841.57910  	0.00439  	0.00003  	0.00422  	0.00431  	0.00517  	0.00000  	0.00000  
101.99915  	21.98190  	10.13709  	10.31097  	16.62812  	-1.18512  	0.01541  	0.25975  	0.24356  	-3.02442  	0.06775  	-0.08567  	-67.78794  	-0.86202  	71.88279  	76.66129  	-15694.55858  	-4841.43289  	0.00439  	0.00003  	0.00422  	0.00430  	0.00517  	0.00000  	0.00000  
103.00248  	21.98189  	10.13642  	10.30984  	16.62955  	-1.18512  	0.01572  	0.25978  	0.24526  	-3.02442  	0.06721  	-0.08575  	-67.76953  	-0.85978  	72.38597  	76.67097  	-15694.83828  	-4841.31310  	0.00439  	0.00002  	0.00422  	0.00430  	0.00517  	0.00000  	0.00000  
104.00578  	21.98132  	10.13577  	10.30765  	16.63019  	-1.18512  	0.01619  	0.25701  	0.24175  	-3.02442  	0.06950  	-0.08566  	-67.75434  	-0.85214  	71.35051  	75.85315  	-15694.85068  	-4841.12402  	0.00439  	0.00003  	0.00422  	0.00431  	0.00516  	0.00000  	0.00000  
105.00613  	21.98029  	10.13440  	10.30639  	16.63095  	-1.18512  	0.01486  	0.25681  	0.24134  	-3.02442  	0.06785  	-0.08567  	-67.73168  	-0.85266  	71.22959  	75.79454  	-15694.79855  	-4840.94927  	0.00439  	0.00003  	0.00422  	0.00429  	0.00516  	0.00000  	0.00000  
106.00942  	21.97967  	10.13282  	10.30542  	16.63246  	-1.18512  	0.01514  	0.25766  	0.24732  	-3.02442  	0.06845  	-0.08565  	-67.70469  	-0.85569  	72.99399  	76.04517  	-15694.97269  	-4840.77967  	0.00440  	0.00003  	0.00422  	0.00429  	0.00516  	0.00000  	0.00000  
107.01174  	21.97921  	10.13111  	10.30410  	16.63248  	-1.18512  	0.01603  	0.25708  	0.24035  	-3.02442  	0.06821  	-0.08570  	-67.69869  	-0.85763  	70.93599  	75.87294  	-15694.88853  	-4840.57799  	0.00438  	0.00003  	0.00422  	0.00431  	0.00516  	0.00000  	0.00000  
108.01306  	21.97823  	10.13055  	10.30344  	16.63300  	-1.18512  	0.01617  	0.25514  	0.24104  	-3.02442  	0.06972  	-0.08561  	-67.67973  	-0.85713  	71.13912  	75.30252  	-15694.79638  	-4840.49624  	0.00439  	0.00003  	0.00422  	0.00431  	0.00515  	0.00000  	0.00000  
109.01638  	21.97704  	10.12996  	10.30173  	16.63411  	-1.18512  	0.01654  	0.25501  	0.23725  	-3.02442  	0.06878  	-0.08572  	-67.65061  	-0.85159  	70.02112  	75.26235  	-15694.78201  	-4840.34412  	0.00438  	0.00003  	0.00422  	0.00432  	0.00515  	0.00000  	0.00000  
110.01972  	21.97542  	10.12941  	10.30111  	16.63484  	-1.18512  	0.01597  	0.25423  	0.24070  	-3.02442  	0.06915  	-0.08564  	-67.62077  	-0.85123  	71.03978  	75.03316  	-15694.60572  	-4840.26625  	0.00439  	0.00003  	0.00422  	0.00431  	0.00515  	0.00000  	0.00000  
111.02105  	21.97524  	10.12787  	10.30097  	16.63393  	-1.18512  	0.01576  	0.25455  	0.23857  	-3.02442  	0.06889  	-0.08569  	-67.63017  	-0.85821  	70.41069  	75.12790  	-15694.39072  	-4840.15386  	0.00438  	0.00003  	0.00422  	0.00430  	0.00515  	0.00000  	0.00000  
112.02433  	21.97454  	10.12841  	10.30041  	16.63418  	-1.18512  	0.01588  	0.25440  	0.23701  	-3.02442  	0.06867  	-0.08575  	-67.61805  	-0.85273  	69.94946  	75.08402  	-15694.30213  	-4840.15226  	0.00438  	0.00002  	0.00422  	0.00430  	0.00515  	0.00000  	0.00000  
113.02765  	21.97263  	10.12683  	10.30053  	16.63393  	-1.18512  	0.01651  	0.25224  	0.23441  	-3.02442  	0.06791  	-0.08568  	-67.59703  	-0.86114  	69.18432  	74.44633  	-15693.87827  	-4840.05568  	0.00438  	0.00003  	0.00422  	0.00432  	0.00514  	0.00000  	0.00000  
114.02897  	21.97064  	10.12549  	10.30012  	16.63329  	-1.18512  	0.01525  	0.25149  	0.23819  	-3.02442  	0.06848  	-0.08568  	-67.58006  	-0.86576  	70.29880  	74.22335  	-15693.35943  	-4839.93925  	0.00438  	0.00003  	0.00422  	0.00429  	0.00513  	0.00000  	0.00000  
115.03228  	21.97049  	10.12536  	10.29899  	16.63269  	-1.18512  	0.01490  	0.25109  	0.23550  	-3.02442  	0.06898  	-0.08569  	-67.58573  	-0.86079  	69.50644  	74.10613  	-15693.21166  	-4839.85526  	0.00438  	0.00003  	0.00422  	0.00429  	0.00513  	0.00000  	0.00000  
116.03560  	21.96881  	10.12356  	10.29785  	16.63157  	-1.18512  	0.01562  	0.25060  	0.23349  	-3.02442  	0.06697  	-0.08568  	-67.57864  	-0.86410  	68.91136  	73.96190  	-15692.66183  	-4839.65981  	0.00437  	0.00003  	0.00421  	0.00430  	0.00513  	0.00000  	0.00000  
117.03695  	21.96865  	10.12381  	10.29747  	16.63172  	-1.18512  	0.01563  	0.24992  	0.23183  	-3.02442  	0.06755  	-0.08565  	-67.57466  	-0.86095  	68.42285  	73.76234  	-15692.65889  	-4839.65084  	0.00437  	0.00003  	0.00422  	0.00430  	0.00513  	0.00000  	0.00000  
118.04026  	21.96683  	10.12436  	10.29786  	16.63090  	-1.18512  	0.01575  	0.24746  	0.23070  	-3.02442  	0.06935  	-0.08567  	-67.56201  	-0.86014  	68.08835  	73.03483  	-15692.13943  	-4839.71328  	0.00437  	0.00003  	0.00422  	0.00430  	0.00512  	0.00000  	0.00000  
119.04258  	21.96531  	10.12421  	10.29726  	16.62867  	-1.18512  	0.01610  	0.24870  	0.22898  	-3.02442  	0.06795  	-0.08573  	-67.57109  	-0.85788  	67.58055  	73.40034  	-15691.40075  	-4839.66374  	0.00437  	0.00003  	0.00422  	0.00431  	0.00512  	0.00000  	0.00000  
120.04388  	21.96449  	10.12318  	10.29753  	16.62752  	-1.18512  	0.01472  	0.24640  	0.23024  	-3.02442  	0.06780  	-0.08571  	-67.57515  	-0.86439  	67.95345  	72.72290  	-15691.01311  	-4839.61339  	0.00437  	0.00003  	0.00422  	0.00428  	0.00511  	0.00000  	0.00000  
121.04523  	21.96320  	10.12308  	10.29669  	16.62685  	-1.18512  	0.01474  	0.24440  	0.23082  	-3.02442  	0.06714  	-0.08565  	-67.56724  	-0.86067  	68.12407  	72.13106  	-15690.62799  	-4839.55037  	0.00437  	0.00003  	0.00421  	0.00428  	0.00510  	0.00000  	0.00000  
122.04854  	21.96167  	10.12402  	10.29613  	16.62475  	-1.18512  	0.01534  	0.24332  	0.22702  	-3.02442  	0.06734  	-0.08573  	-67.57463  	-0.85328  	67.00368  	71.81248  	-15689.91335  	-4839.57620  	0.00436  	0.00003  	0.00422  	0.00429  	0.00510  	0.00000  	0.00000  
123.05183  	21.96026  	10.12256  	10.29487  	16.62316  	-1.18512  	0.01588  	0.24312  	0.22580  	-3.02442  	0.06827  	-0.08575  	-67.57687  	-0.85429  	66.64381  	71.75277  	-15689.32324  	-4839.39499  	0.00436  	0.00002  	0.00422  	0.00430  	0.00510  	0.00000  	0.00000  
124.05215  	21.95810  	10.12221  	10.29501  	16.62070  	-1.18512  	0.01600  	0.24181  	0.22610  	-3.02442  	0.06778  	-0.08569  	-67.58057  	-0.85666  	66.73015  	71.36643  	-15688.41325  	-4839.38079  	0.00436  	0.00003  	0.00422  	0.00431  	0.00509  	0.00000  	0.00000  
125.05550  	21.95810  	10.12215  	10.29459  	16.61904  	-1.18512  	0.01548  	0.24014  	0.22405  	-3.02442  	0.06888  	-0.08567  	-67.60166  	-0.85487  	66.12712  	70.87480  	-15688.08834  	-4839.34903  	0.00436  	0.00003  	0.00422  	0.00430  	0.00508  	0.00000  	0.00000  
126.05881  	21.95691  	10.12179  	10.29430  	16.61680  	-1.18512  	0.01525  	0.23908  	0.22560  	-3.02442  	0.06813  	-0.08571  	-67.61501  	-0.85529  	66.58457  	70.56194  	-15687.41220  	-4839.30565  	0.00436  	0.00003  	0.00422  	0.00429  	0.00508  	0.00000  	0.00000  
127.06013  	21.95428  	10.12128  	10.29429  	16.61435  	-1.18512  	0.01408  	0.23870  	0.21690  	-3.02442  	0.06817  	-0.08563  	-67.61271  	-0.85772  	64.01634  	70.44877  	-15686.41375  	-4839.27101  	0.00435  	0.00003  	0.00422  	0.00427  	0.00507  	0.00000  	0.00000  
128.06344  	21.95436  	10.12180  	10.29335  	16.61192  	-1.18512  	0.01625  	0.23999  	0.21738  	-3.02442  	0.06768  	-0.08566  	-67.64446  	-0.85049  	64.15622  	70.83055  	-15685.94821  	-4839.24348  	0.00435  	0.00003  	0.00422  	0.00431  	0.00508  	0.00000  	0.00000  
